ASCII SCAN ANALOG DATA:			h1_0_5e.sac
DATE:	4/26/2012	TIME:	11:05:57 PM

Number of stored SCA cycles			1
Converted SCA cycle			1

INFO SCAN:		1
Data Titel	Countrate
Data Unit	cps
Scan Titel	Energy
Scan Unit	eV
Comment	
First Mass	-10.00
Scan Width	26
Values/Mass	64
Zoom Start	-10.00
Zoom End	 16.00

INFO ADDI DATA:		1
Title	Mass
Unit	amu
Comment	

Cycle	CycleDate	CycleTime	
1	4/26/2012	11:05:57 PM:63
AddiData	1
1.3
ScanData	1
 -10.00	0
  -9.98	0
  -9.97	0
  -9.95	0
  -9.94	0
  -9.92	0
  -9.91	0
  -9.89	0
  -9.88	31.9898
  -9.86	0
  -9.84	0
  -9.83	0
  -9.81	0
  -9.80	0
  -9.78	0
  -9.77	0
  -9.75	0
  -9.73	0
  -9.72	31.9898
  -9.70	0
  -9.69	0
  -9.67	0
  -9.66	0
  -9.64	0
  -9.63	0
  -9.61	0
  -9.59	0
  -9.58	0
  -9.56	0
  -9.55	0
  -9.53	0
  -9.52	0
  -9.50	0
  -9.48	0
  -9.47	0
  -9.45	0
  -9.44	0
  -9.42	0
  -9.41	0
  -9.39	0
  -9.38	0
  -9.36	0
  -9.34	0
  -9.33	0
  -9.31	0
  -9.30	0
  -9.28	0
  -9.27	0
  -9.25	0
  -9.23	0
  -9.22	0
  -9.20	0
  -9.19	31.9898
  -9.17	0
  -9.16	31.9898
  -9.14	0
  -9.13	0
  -9.11	0
  -9.09	0
  -9.08	0
  -9.06	0
  -9.05	0
  -9.03	0
  -9.02	31.9898
  -9.00	0
  -8.98	0
  -8.97	31.9898
  -8.95	0
  -8.94	0
  -8.92	0
  -8.91	0
  -8.89	0
  -8.88	0
  -8.86	0
  -8.84	0
  -8.83	0
  -8.81	31.9898
  -8.80	31.9898
  -8.78	0
  -8.77	0
  -8.75	31.9898
  -8.73	0
  -8.72	0
  -8.70	0
  -8.69	0
  -8.67	0
  -8.66	0
  -8.64	31.9898
  -8.63	0
  -8.61	0
  -8.59	31.9898
  -8.58	0
  -8.56	0
  -8.55	0
  -8.53	31.9898
  -8.52	0
  -8.50	0
  -8.48	0
  -8.47	0
  -8.45	0
  -8.44	31.9898
  -8.42	0
  -8.41	0
  -8.39	0
  -8.38	31.9898
  -8.36	0
  -8.34	0
  -8.33	0
  -8.31	0
  -8.30	0
  -8.28	0
  -8.27	0
  -8.25	0
  -8.23	0
  -8.22	0
  -8.20	0
  -8.19	0
  -8.17	0
  -8.16	0
  -8.14	31.9898
  -8.13	0
  -8.11	0
  -8.09	0
  -8.08	0
  -8.06	0
  -8.05	0
  -8.03	0
  -8.02	0
  -8.00	31.9898
  -7.98	31.9898
  -7.97	0
  -7.95	0
  -7.94	0
  -7.92	31.9898
  -7.91	31.9898
  -7.89	31.9898
  -7.88	31.9898
  -7.86	0
  -7.84	0
  -7.83	31.9898
  -7.81	0
  -7.80	0
  -7.78	0
  -7.77	31.9898
  -7.75	31.9898
  -7.73	0
  -7.72	0
  -7.70	0
  -7.69	31.9898
  -7.67	0
  -7.66	0
  -7.64	0
  -7.63	0
  -7.61	0
  -7.59	31.9898
  -7.58	31.9898
  -7.56	0
  -7.55	0
  -7.53	31.9898
  -7.52	0
  -7.50	31.9898
  -7.48	0
  -7.47	0
  -7.45	31.9898
  -7.44	31.9898
  -7.42	0
  -7.41	0
  -7.39	0
  -7.38	0
  -7.36	0
  -7.34	0
  -7.33	0
  -7.31	0
  -7.30	0
  -7.28	31.9898
  -7.27	31.9898
  -7.25	0
  -7.23	0
  -7.22	0
  -7.20	63.9795
  -7.19	0
  -7.17	31.9898
  -7.16	0
  -7.14	0
  -7.13	0
  -7.11	31.9898
  -7.09	31.9898
  -7.08	0
  -7.06	31.9898
  -7.05	0
  -7.03	0
  -7.02	0
  -7.00	0
  -6.98	0
  -6.97	63.9795
  -6.95	0
  -6.94	31.9898
  -6.92	0
  -6.91	0
  -6.89	0
  -6.88	63.9795
  -6.86	31.9898
  -6.84	31.9898
  -6.83	31.9898
  -6.81	31.9898
  -6.80	0
  -6.78	0
  -6.77	31.9898
  -6.75	0
  -6.73	0
  -6.72	0
  -6.70	0
  -6.69	31.9898
  -6.67	31.9898
  -6.66	31.9898
  -6.64	0
  -6.63	0
  -6.61	31.9898
  -6.59	31.9898
  -6.58	63.9795
  -6.56	0
  -6.55	31.9898
  -6.53	0
  -6.52	0
  -6.50	0
  -6.48	0
  -6.47	31.9898
  -6.45	0
  -6.44	31.9898
  -6.42	0
  -6.41	31.9898
  -6.39	31.9898
  -6.38	0
  -6.36	0
  -6.34	63.9795
  -6.33	0
  -6.31	31.9898
  -6.30	63.9795
  -6.28	31.9898
  -6.27	31.9898
  -6.25	0
  -6.23	0
  -6.22	31.9898
  -6.20	95.9693
  -6.19	63.9795
  -6.17	0
  -6.16	0
  -6.14	0
  -6.13	0
  -6.11	31.9898
  -6.09	0
  -6.08	95.9693
  -6.06	0
  -6.05	0
  -6.03	0
  -6.02	0
  -6.00	63.9795
  -5.98	0
  -5.97	31.9898
  -5.95	0
  -5.94	31.9898
  -5.92	31.9898
  -5.91	0
  -5.89	0
  -5.88	31.9898
  -5.86	0
  -5.84	63.9795
  -5.83	31.9898
  -5.81	63.9795
  -5.80	31.9898
  -5.78	0
  -5.77	95.9693
  -5.75	0
  -5.73	31.9898
  -5.72	0
  -5.70	0
  -5.69	31.9898
  -5.67	31.9898
  -5.66	63.9795
  -5.64	0
  -5.63	0
  -5.61	31.9898
  -5.59	0
  -5.58	31.9898
  -5.56	0
  -5.55	31.9898
  -5.53	31.9898
  -5.52	31.9898
  -5.50	31.9898
  -5.48	31.9898
  -5.47	63.9795
  -5.45	31.9898
  -5.44	0
  -5.42	0
  -5.41	31.9898
  -5.39	0
  -5.38	63.9795
  -5.36	31.9898
  -5.34	0
  -5.33	31.9898
  -5.31	31.9898
  -5.30	31.9898
  -5.28	31.9898
  -5.27	0
  -5.25	0
  -5.23	63.9795
  -5.22	31.9898
  -5.20	0
  -5.19	63.9795
  -5.17	0
  -5.16	0
  -5.14	0
  -5.13	0
  -5.11	31.9898
  -5.09	31.9898
  -5.08	63.9795
  -5.06	63.9795
  -5.05	0
  -5.03	0
  -5.02	0
  -5.00	63.9795
  -4.98	95.9693
  -4.97	0
  -4.95	63.9795
  -4.94	0
  -4.92	31.9898
  -4.91	31.9898
  -4.89	0
  -4.88	0
  -4.86	0
  -4.84	95.9693
  -4.83	0
  -4.81	95.9693
  -4.80	0
  -4.78	31.9898
  -4.77	31.9898
  -4.75	0
  -4.73	31.9898
  -4.72	31.9898
  -4.70	63.9795
  -4.69	63.9795
  -4.67	31.9898
  -4.66	31.9898
  -4.64	63.9795
  -4.63	0
  -4.61	31.9898
  -4.59	0
  -4.58	0
  -4.56	0
  -4.55	0
  -4.53	0
  -4.52	127.959
  -4.50	31.9898
  -4.48	0
  -4.47	31.9898
  -4.45	0
  -4.44	0
  -4.42	31.9898
  -4.41	63.9795
  -4.39	31.9898
  -4.38	63.9795
  -4.36	63.9795
  -4.34	95.9693
  -4.33	0
  -4.31	0
  -4.30	0
  -4.28	31.9898
  -4.27	63.9795
  -4.25	31.9898
  -4.23	0
  -4.22	63.9795
  -4.20	31.9898
  -4.19	31.9898
  -4.17	31.9898
  -4.16	31.9898
  -4.14	31.9898
  -4.13	63.9795
  -4.11	0
  -4.09	0
  -4.08	31.9898
  -4.06	63.9795
  -4.05	31.9898
  -4.03	63.9795
  -4.02	31.9898
  -4.00	0
  -3.98	31.9898
  -3.97	63.9795
  -3.95	0
  -3.94	31.9898
  -3.92	31.9898
  -3.91	63.9795
  -3.89	31.9898
  -3.88	31.9898
  -3.86	63.9795
  -3.84	31.9898
  -3.83	31.9898
  -3.81	31.9898
  -3.80	0
  -3.78	31.9898
  -3.77	31.9898
  -3.75	0
  -3.73	127.959
  -3.72	63.9795
  -3.70	0
  -3.69	95.9693
  -3.67	95.9693
  -3.66	31.9898
  -3.64	0
  -3.63	63.9795
  -3.61	31.9898
  -3.59	31.9898
  -3.58	31.9898
  -3.56	31.9898
  -3.55	127.959
  -3.53	0
  -3.52	63.9795
  -3.50	0
  -3.48	95.9693
  -3.47	31.9898
  -3.45	0
  -3.44	63.9795
  -3.42	31.9898
  -3.41	63.9795
  -3.39	31.9898
  -3.38	63.9795
  -3.36	0
  -3.34	0
  -3.33	0
  -3.31	0
  -3.30	0
  -3.28	63.9795
  -3.27	31.9898
  -3.25	31.9898
  -3.23	31.9898
  -3.22	63.9795
  -3.20	0
  -3.19	63.9795
  -3.17	0
  -3.16	0
  -3.14	31.9898
  -3.13	0
  -3.11	127.959
  -3.09	31.9898
  -3.08	0
  -3.06	0
  -3.05	0
  -3.03	31.9898
  -3.02	159.949
  -3.00	0
  -2.98	0
  -2.97	31.9898
  -2.95	0
  -2.94	31.9898
  -2.92	0
  -2.91	0
  -2.89	31.9898
  -2.88	0
  -2.86	63.9795
  -2.84	31.9898
  -2.83	0
  -2.81	63.9795
  -2.80	63.9795
  -2.78	63.9795
  -2.77	0
  -2.75	63.9795
  -2.73	0
  -2.72	0
  -2.70	0
  -2.69	31.9898
  -2.67	0
  -2.66	0
  -2.64	31.9898
  -2.63	31.9898
  -2.61	95.9693
  -2.59	0
  -2.58	31.9898
  -2.56	63.9795
  -2.55	31.9898
  -2.53	0
  -2.52	31.9898
  -2.50	31.9898
  -2.48	31.9898
  -2.47	31.9898
  -2.45	95.9693
  -2.44	0
  -2.42	31.9898
  -2.41	31.9898
  -2.39	95.9693
  -2.38	31.9898
  -2.36	0
  -2.34	0
  -2.33	31.9898
  -2.31	0
  -2.30	0
  -2.28	31.9898
  -2.27	0
  -2.25	0
  -2.23	0
  -2.22	0
  -2.20	0
  -2.19	31.9898
  -2.17	31.9898
  -2.16	31.9898
  -2.14	63.9795
  -2.13	31.9898
  -2.11	31.9898
  -2.09	95.9693
  -2.08	31.9898
  -2.06	63.9795
  -2.05	0
  -2.03	0
  -2.02	63.9795
  -2.00	63.9795
  -1.98	0
  -1.97	0
  -1.95	127.959
  -1.94	31.9898
  -1.92	63.9795
  -1.91	0
  -1.89	31.9898
  -1.88	0
  -1.86	95.9693
  -1.84	31.9898
  -1.83	31.9898
  -1.81	31.9898
  -1.80	31.9898
  -1.78	63.9795
  -1.77	63.9795
  -1.75	95.9693
  -1.73	0
  -1.72	31.9898
  -1.70	31.9898
  -1.69	0
  -1.67	0
  -1.66	0
  -1.64	0
  -1.63	0
  -1.61	0
  -1.59	0
  -1.58	0
  -1.56	31.9898
  -1.55	31.9898
  -1.53	31.9898
  -1.52	31.9898
  -1.50	0
  -1.48	63.9795
  -1.47	0
  -1.45	95.9693
  -1.44	31.9898
  -1.42	31.9898
  -1.41	63.9795
  -1.39	31.9898
  -1.38	63.9795
  -1.36	31.9898
  -1.34	63.9795
  -1.33	0
  -1.31	159.949
  -1.30	31.9898
  -1.28	31.9898
  -1.27	0
  -1.25	0
  -1.23	0
  -1.22	31.9898
  -1.20	31.9898
  -1.19	127.959
  -1.17	95.9693
  -1.16	31.9898
  -1.14	0
  -1.13	0
  -1.11	63.9795
  -1.09	31.9898
  -1.08	31.9898
  -1.06	95.9693
  -1.05	0
  -1.03	0
  -1.02	0
  -1.00	31.9898
  -0.98	63.9795
  -0.97	63.9795
  -0.95	31.9898
  -0.94	31.9898
  -0.92	95.9693
  -0.91	0
  -0.89	63.9795
  -0.88	0
  -0.86	31.9898
  -0.84	0
  -0.83	0
  -0.81	63.9795
  -0.80	0
  -0.78	31.9898
  -0.77	95.9693
  -0.75	63.9795
  -0.73	31.9898
  -0.72	127.959
  -0.70	63.9795
  -0.69	63.9795
  -0.67	63.9795
  -0.66	95.9693
  -0.64	31.9898
  -0.63	63.9795
  -0.61	63.9795
  -0.59	63.9795
  -0.58	63.9795
  -0.56	127.959
  -0.55	31.9898
  -0.53	127.959
  -0.52	31.9898
  -0.50	127.959
  -0.48	31.9898
  -0.47	63.9795
  -0.45	31.9898
  -0.44	63.9795
  -0.42	0
  -0.41	31.9898
  -0.39	0
  -0.38	31.9898
  -0.36	63.9795
  -0.34	31.9898
  -0.33	0
  -0.31	0
  -0.30	63.9795
  -0.28	95.9693
  -0.27	0
  -0.25	31.9898
  -0.23	31.9898
  -0.22	159.949
  -0.20	95.9693
  -0.19	31.9898
  -0.17	31.9898
  -0.16	0
  -0.14	31.9898
  -0.13	63.9795
  -0.11	95.9693
  -0.09	63.9795
  -0.08	63.9795
  -0.06	127.959
  -0.05	95.9693
  -0.03	63.9795
  -0.02	63.9795
   0.00	0
   0.02	63.9795
   0.03	31.9898
   0.05	0
   0.06	63.9795
   0.08	31.9898
   0.09	63.9795
   0.11	95.9693
   0.13	63.9795
   0.14	95.9693
   0.16	63.9795
   0.17	0
   0.19	0
   0.20	0
   0.22	63.9795
   0.23	0
   0.25	0
   0.27	31.9898
   0.28	31.9898
   0.30	31.9898
   0.31	31.9898
   0.33	63.9795
   0.34	31.9898
   0.36	63.9795
   0.38	0
   0.39	63.9795
   0.41	63.9795
   0.42	31.9898
   0.44	127.959
   0.45	31.9898
   0.47	0
   0.48	0
   0.50	31.9898
   0.52	0
   0.53	31.9898
   0.55	31.9898
   0.56	31.9898
   0.58	63.9795
   0.59	0
   0.61	31.9898
   0.63	31.9898
   0.64	127.959
   0.66	63.9795
   0.67	95.9693
   0.69	0
   0.70	0
   0.72	31.9898
   0.73	0
   0.75	0
   0.77	63.9795
   0.78	0
   0.80	31.9898
   0.81	31.9898
   0.83	31.9898
   0.84	31.9898
   0.86	63.9795
   0.88	95.9693
   0.89	31.9898
   0.91	95.9693
   0.92	127.959
   0.94	31.9898
   0.95	63.9795
   0.97	31.9898
   0.98	31.9898
   1.00	31.9898
   1.02	191.939
   1.03	31.9898
   1.05	31.9898
   1.06	31.9898
   1.08	63.9795
   1.09	0
   1.11	31.9898
   1.13	31.9898
   1.14	127.959
   1.16	95.9693
   1.17	0
   1.19	31.9898
   1.20	0
   1.22	63.9795
   1.23	63.9795
   1.25	63.9795
   1.27	31.9898
   1.28	63.9795
   1.30	31.9898
   1.31	31.9898
   1.33	31.9898
   1.34	63.9795
   1.36	0
   1.38	0
   1.39	95.9693
   1.41	63.9795
   1.42	31.9898
   1.44	63.9795
   1.45	0
   1.47	63.9795
   1.48	31.9898
   1.50	0
   1.52	31.9898
   1.53	0
   1.55	63.9795
   1.56	63.9795
   1.58	63.9795
   1.59	31.9898
   1.61	0
   1.63	0
   1.64	63.9795
   1.66	95.9693
   1.67	63.9795
   1.69	63.9795
   1.70	63.9795
   1.72	31.9898
   1.73	0
   1.75	63.9795
   1.77	63.9795
   1.78	127.959
   1.80	0
   1.81	0
   1.83	95.9693
   1.84	0
   1.86	31.9898
   1.88	63.9795
   1.89	95.9693
   1.91	31.9898
   1.92	95.9693
   1.94	95.9693
   1.95	31.9898
   1.97	0
   1.98	0
   2.00	31.9898
   2.02	31.9898
   2.03	95.9693
   2.05	95.9693
   2.06	31.9898
   2.08	95.9693
   2.09	0
   2.11	31.9898
   2.13	63.9795
   2.14	31.9898
   2.16	63.9795
   2.17	31.9898
   2.19	31.9898
   2.20	0
   2.22	0
   2.23	0
   2.25	31.9898
   2.27	31.9898
   2.28	31.9898
   2.30	127.959
   2.31	0
   2.33	0
   2.34	95.9693
   2.36	0
   2.38	63.9795
   2.39	31.9898
   2.41	31.9898
   2.42	0
   2.44	0
   2.45	31.9898
   2.47	95.9693
   2.48	31.9898
   2.50	31.9898
   2.52	63.9795
   2.53	31.9898
   2.55	0
   2.56	63.9795
   2.58	0
   2.59	31.9898
   2.61	63.9795
   2.63	0
   2.64	0
   2.66	63.9795
   2.67	0
   2.69	0
   2.70	63.9795
   2.72	31.9898
   2.73	0
   2.75	0
   2.77	0
   2.78	0
   2.80	95.9693
   2.81	63.9795
   2.83	31.9898
   2.84	0
   2.86	0
   2.88	31.9898
   2.89	63.9795
   2.91	0
   2.92	0
   2.94	63.9795
   2.95	31.9898
   2.97	63.9795
   2.98	31.9898
   3.00	31.9898
   3.02	0
   3.03	0
   3.05	0
   3.06	0
   3.08	31.9898
   3.09	0
   3.11	63.9795
   3.13	63.9795
   3.14	31.9898
   3.16	31.9898
   3.17	31.9898
   3.19	31.9898
   3.20	31.9898
   3.22	0
   3.23	31.9898
   3.25	31.9898
   3.27	31.9898
   3.28	0
   3.30	31.9898
   3.31	0
   3.33	0
   3.34	63.9795
   3.36	63.9795
   3.38	95.9693
   3.39	95.9693
   3.41	0
   3.42	31.9898
   3.44	127.959
   3.45	63.9795
   3.47	31.9898
   3.48	31.9898
   3.50	0
   3.52	95.9693
   3.53	63.9795
   3.55	0
   3.56	127.959
   3.58	0
   3.59	0
   3.61	95.9693
   3.63	0
   3.64	31.9898
   3.66	95.9693
   3.67	0
   3.69	63.9795
   3.70	0
   3.72	0
   3.73	63.9795
   3.75	31.9898
   3.77	0
   3.78	31.9898
   3.80	31.9898
   3.81	31.9898
   3.83	31.9898
   3.84	95.9693
   3.86	31.9898
   3.88	0
   3.89	63.9795
   3.91	63.9795
   3.92	31.9898
   3.94	63.9795
   3.95	31.9898
   3.97	31.9898
   3.98	95.9693
   4.00	0
   4.02	31.9898
   4.03	95.9693
   4.05	31.9898
   4.06	31.9898
   4.08	95.9693
   4.09	0
   4.11	31.9898
   4.13	95.9693
   4.14	127.959
   4.16	95.9693
   4.17	0
   4.19	31.9898
   4.20	63.9795
   4.22	31.9898
   4.23	63.9795
   4.25	0
   4.27	127.959
   4.28	63.9795
   4.30	31.9898
   4.31	31.9898
   4.33	0
   4.34	0
   4.36	0
   4.38	31.9898
   4.39	63.9795
   4.41	95.9693
   4.42	0
   4.44	0
   4.45	63.9795
   4.47	0
   4.48	31.9898
   4.50	95.9693
   4.52	31.9898
   4.53	63.9795
   4.55	31.9898
   4.56	31.9898
   4.58	0
   4.59	95.9693
   4.61	31.9898
   4.63	63.9795
   4.64	31.9898
   4.66	0
   4.67	63.9795
   4.69	159.949
   4.70	95.9693
   4.72	31.9898
   4.73	63.9795
   4.75	0
   4.77	31.9898
   4.78	31.9898
   4.80	31.9898
   4.81	31.9898
   4.83	0
   4.84	31.9898
   4.86	0
   4.88	31.9898
   4.89	31.9898
   4.91	31.9898
   4.92	63.9795
   4.94	63.9795
   4.95	63.9795
   4.97	31.9898
   4.98	31.9898
   5.00	31.9898
   5.02	0
   5.03	0
   5.05	0
   5.06	31.9898
   5.08	0
   5.09	31.9898
   5.11	31.9898
   5.13	0
   5.14	0
   5.16	63.9795
   5.17	127.959
   5.19	63.9795
   5.20	31.9898
   5.22	63.9795
   5.23	63.9795
   5.25	31.9898
   5.27	63.9795
   5.28	0
   5.30	0
   5.31	159.949
   5.33	0
   5.34	0
   5.36	31.9898
   5.38	63.9795
   5.39	63.9795
   5.41	31.9898
   5.42	31.9898
   5.44	0
   5.45	31.9898
   5.47	0
   5.48	127.959
   5.50	0
   5.52	63.9795
   5.53	63.9795
   5.55	0
   5.56	0
   5.58	63.9795
   5.59	31.9898
   5.61	0
   5.63	127.959
   5.64	31.9898
   5.66	0
   5.67	0
   5.69	63.9795
   5.70	31.9898
   5.72	0
   5.73	0
   5.75	63.9795
   5.77	0
   5.78	95.9693
   5.80	63.9795
   5.81	31.9898
   5.83	63.9795
   5.84	63.9795
   5.86	31.9898
   5.88	63.9795
   5.89	95.9693
   5.91	0
   5.92	0
   5.94	31.9898
   5.95	31.9898
   5.97	31.9898
   5.98	31.9898
   6.00	127.959
   6.02	31.9898
   6.03	31.9898
   6.05	0
   6.06	63.9795
   6.08	31.9898
   6.09	31.9898
   6.11	0
   6.13	31.9898
   6.14	0
   6.16	0
   6.17	31.9898
   6.19	0
   6.20	0
   6.22	63.9795
   6.23	31.9898
   6.25	95.9693
   6.27	31.9898
   6.28	31.9898
   6.30	31.9898
   6.31	0
   6.33	63.9795
   6.34	63.9795
   6.36	63.9795
   6.38	31.9898
   6.39	31.9898
   6.41	31.9898
   6.42	95.9693
   6.44	0
   6.45	31.9898
   6.47	63.9795
   6.48	63.9795
   6.50	31.9898
   6.52	63.9795
   6.53	63.9795
   6.55	63.9795
   6.56	0
   6.58	31.9898
   6.59	31.9898
   6.61	0
   6.63	63.9795
   6.64	95.9693
   6.66	63.9795
   6.67	63.9795
   6.69	0
   6.70	0
   6.72	0
   6.73	63.9795
   6.75	0
   6.77	31.9898
   6.78	31.9898
   6.80	95.9693
   6.81	0
   6.83	0
   6.84	0
   6.86	31.9898
   6.88	0
   6.89	63.9795
   6.91	0
   6.92	0
   6.94	63.9795
   6.95	0
   6.97	127.959
   6.98	31.9898
   7.00	63.9795
   7.02	63.9795
   7.03	31.9898
   7.05	63.9795
   7.06	63.9795
   7.08	0
   7.09	31.9898
   7.11	95.9693
   7.13	31.9898
   7.14	31.9898
   7.16	0
   7.17	63.9795
   7.19	95.9693
   7.20	0
   7.22	31.9898
   7.23	31.9898
   7.25	63.9795
   7.27	63.9795
   7.28	63.9795
   7.30	31.9898
   7.31	31.9898
   7.33	31.9898
   7.34	31.9898
   7.36	31.9898
   7.38	31.9898
   7.39	0
   7.41	127.959
   7.42	0
   7.44	0
   7.45	31.9898
   7.47	63.9795
   7.48	31.9898
   7.50	0
   7.52	0
   7.53	31.9898
   7.55	0
   7.56	0
   7.58	31.9898
   7.59	31.9898
   7.61	0
   7.63	31.9898
   7.64	0
   7.66	0
   7.67	31.9898
   7.69	0
   7.70	31.9898
   7.72	63.9795
   7.73	63.9795
   7.75	0
   7.77	0
   7.78	63.9795
   7.80	31.9898
   7.81	0
   7.83	31.9898
   7.84	31.9898
   7.86	95.9693
   7.88	0
   7.89	31.9898
   7.91	0
   7.92	31.9898
   7.94	31.9898
   7.95	31.9898
   7.97	0
   7.98	31.9898
   8.00	31.9898
   8.02	63.9795
   8.03	31.9898
   8.05	0
   8.06	0
   8.08	31.9898
   8.09	0
   8.11	95.9693
   8.13	0
   8.14	0
   8.16	63.9795
   8.17	63.9795
   8.19	31.9898
   8.20	0
   8.22	63.9795
   8.23	0
   8.25	0
   8.27	0
   8.28	0
   8.30	0
   8.31	127.959
   8.33	0
   8.34	127.959
   8.36	31.9898
   8.38	31.9898
   8.39	63.9795
   8.41	63.9795
   8.42	95.9693
   8.44	31.9898
   8.45	31.9898
   8.47	0
   8.48	63.9795
   8.50	0
   8.52	31.9898
   8.53	0
   8.55	0
   8.56	0
   8.58	0
   8.59	0
   8.61	0
   8.63	63.9795
   8.64	0
   8.66	0
   8.67	31.9898
   8.69	0
   8.70	0
   8.72	0
   8.73	31.9898
   8.75	31.9898
   8.77	0
   8.78	0
   8.80	0
   8.81	0
   8.83	0
   8.84	31.9898
   8.86	31.9898
   8.88	0
   8.89	63.9795
   8.91	31.9898
   8.92	0
   8.94	0
   8.95	31.9898
   8.97	0
   8.98	31.9898
   9.00	63.9795
   9.02	31.9898
   9.03	31.9898
   9.05	0
   9.06	0
   9.08	0
   9.09	31.9898
   9.11	63.9795
   9.13	63.9795
   9.14	0
   9.16	0
   9.17	95.9693
   9.19	63.9795
   9.20	0
   9.22	0
   9.23	0
   9.25	0
   9.27	0
   9.28	31.9898
   9.30	0
   9.31	31.9898
   9.33	0
   9.34	0
   9.36	31.9898
   9.38	31.9898
   9.39	31.9898
   9.41	0
   9.42	31.9898
   9.44	0
   9.45	31.9898
   9.47	0
   9.48	31.9898
   9.50	31.9898
   9.52	0
   9.53	0
   9.55	31.9898
   9.56	31.9898
   9.58	0
   9.59	0
   9.61	63.9795
   9.63	0
   9.64	31.9898
   9.66	0
   9.67	31.9898
   9.69	0
   9.70	63.9795
   9.72	31.9898
   9.73	31.9898
   9.75	0
   9.77	31.9898
   9.78	0
   9.80	0
   9.81	31.9898
   9.83	31.9898
   9.84	0
   9.86	31.9898
   9.88	0
   9.89	0
   9.91	31.9898
   9.92	0
   9.94	0
   9.95	31.9898
   9.97	31.9898
   9.98	31.9898
  10.00	31.9898
  10.02	0
  10.03	31.9898
  10.05	63.9795
  10.06	0
  10.08	0
  10.09	31.9898
  10.11	0
  10.13	31.9898
  10.14	31.9898
  10.16	31.9898
  10.17	0
  10.19	31.9898
  10.20	31.9898
  10.22	95.9693
  10.23	0
  10.25	0
  10.27	31.9898
  10.28	0
  10.30	31.9898
  10.31	31.9898
  10.33	0
  10.34	63.9795
  10.36	31.9898
  10.38	0
  10.39	31.9898
  10.41	0
  10.42	0
  10.44	31.9898
  10.45	0
  10.47	127.959
  10.48	0
  10.50	31.9898
  10.52	63.9795
  10.53	31.9898
  10.55	0
  10.56	31.9898
  10.58	0
  10.59	31.9898
  10.61	31.9898
  10.63	63.9795
  10.64	63.9795
  10.66	0
  10.67	31.9898
  10.69	31.9898
  10.70	159.949
  10.72	31.9898
  10.73	0
  10.75	63.9795
  10.77	31.9898
  10.78	127.959
  10.80	0
  10.81	63.9795
  10.83	0
  10.84	31.9898
  10.86	63.9795
  10.88	0
  10.89	31.9898
  10.91	0
  10.92	63.9795
  10.94	31.9898
  10.95	63.9795
  10.97	31.9898
  10.98	63.9795
  11.00	0
  11.02	63.9795
  11.03	31.9898
  11.05	63.9795
  11.06	63.9795
  11.08	95.9693
  11.09	127.959
  11.11	0
  11.13	0
  11.14	0
  11.16	63.9795
  11.17	63.9795
  11.19	31.9898
  11.20	63.9795
  11.22	63.9795
  11.23	159.949
  11.25	63.9795
  11.27	95.9693
  11.28	0
  11.30	31.9898
  11.31	63.9795
  11.33	63.9795
  11.34	95.9693
  11.36	159.949
  11.38	95.9693
  11.39	127.959
  11.41	95.9693
  11.42	63.9795
  11.44	319.898
  11.45	95.9693
  11.47	63.9795
  11.48	31.9898
  11.50	95.9693
  11.52	127.959
  11.53	159.949
  11.55	31.9898
  11.56	31.9898
  11.58	63.9795
  11.59	127.959
  11.61	63.9795
  11.63	31.9898
  11.64	31.9898
  11.66	31.9898
  11.67	95.9693
  11.69	0
  11.70	127.959
  11.72	95.9693
  11.73	191.939
  11.75	63.9795
  11.77	63.9795
  11.78	191.939
  11.80	31.9898
  11.81	0
  11.83	31.9898
  11.84	95.9693
  11.86	63.9795
  11.88	95.9693
  11.89	159.949
  11.91	0
  11.92	95.9693
  11.94	63.9795
  11.95	63.9795
  11.97	31.9898
  11.98	63.9795
  12.00	31.9898
  12.02	95.9693
  12.03	63.9795
  12.05	63.9795
  12.06	63.9795
  12.08	31.9898
  12.09	63.9795
  12.11	63.9795
  12.13	127.959
  12.14	31.9898
  12.16	63.9795
  12.17	63.9795
  12.19	31.9898
  12.20	0
  12.22	63.9795
  12.23	95.9693
  12.25	63.9795
  12.27	63.9795
  12.28	127.959
  12.30	63.9795
  12.31	127.959
  12.33	0
  12.34	63.9795
  12.36	95.9693
  12.38	31.9898
  12.39	95.9693
  12.41	63.9795
  12.42	0
  12.44	63.9795
  12.45	127.959
  12.47	95.9693
  12.48	63.9795
  12.50	0
  12.52	95.9693
  12.53	31.9898
  12.55	0
  12.56	31.9898
  12.58	31.9898
  12.59	0
  12.61	95.9693
  12.63	0
  12.64	0
  12.66	0
  12.67	31.9898
  12.69	63.9795
  12.70	0
  12.72	63.9795
  12.73	31.9898
  12.75	95.9693
  12.77	31.9898
  12.78	31.9898
  12.80	63.9795
  12.81	31.9898
  12.83	31.9898
  12.84	63.9795
  12.86	63.9795
  12.88	31.9898
  12.89	31.9898
  12.91	31.9898
  12.92	63.9795
  12.94	63.9795
  12.95	127.959
  12.97	0
  12.98	127.959
  13.00	31.9898
  13.02	63.9795
  13.03	31.9898
  13.05	63.9795
  13.06	95.9693
  13.08	127.959
  13.09	31.9898
  13.11	63.9795
  13.13	63.9795
  13.14	95.9693
  13.16	0
  13.17	0
  13.19	31.9898
  13.20	0
  13.22	63.9795
  13.23	31.9898
  13.25	95.9693
  13.27	95.9693
  13.28	159.949
  13.30	31.9898
  13.31	95.9693
  13.33	31.9898
  13.34	63.9795
  13.36	95.9693
  13.38	63.9795
  13.39	31.9898
  13.41	31.9898
  13.42	0
  13.44	95.9693
  13.45	31.9898
  13.47	127.959
  13.48	0
  13.50	0
  13.52	0
  13.53	159.949
  13.55	0
  13.56	31.9898
  13.58	63.9795
  13.59	127.959
  13.61	0
  13.63	31.9898
  13.64	0
  13.66	95.9693
  13.67	31.9898
  13.69	0
  13.70	31.9898
  13.72	63.9795
  13.73	0
  13.75	63.9795
  13.77	0
  13.78	95.9693
  13.80	0
  13.81	31.9898
  13.83	31.9898
  13.84	63.9795
  13.86	0
  13.88	63.9795
  13.89	31.9898
  13.91	31.9898
  13.92	63.9795
  13.94	31.9898
  13.95	31.9898
  13.97	63.9795
  13.98	31.9898
  14.00	0
  14.02	0
  14.03	0
  14.05	63.9795
  14.06	95.9693
  14.08	63.9795
  14.09	31.9898
  14.11	95.9693
  14.13	31.9898
  14.14	95.9693
  14.16	0
  14.17	0
  14.19	31.9898
  14.20	63.9795
  14.22	31.9898
  14.23	31.9898
  14.25	63.9795
  14.27	0
  14.28	63.9795
  14.30	0
  14.31	95.9693
  14.33	0
  14.34	31.9898
  14.36	63.9795
  14.38	31.9898
  14.39	63.9795
  14.41	63.9795
  14.42	95.9693
  14.44	95.9693
  14.45	95.9693
  14.47	31.9898
  14.48	63.9795
  14.50	31.9898
  14.52	127.959
  14.53	0
  14.55	63.9795
  14.56	127.959
  14.58	95.9693
  14.59	31.9898
  14.61	0
  14.63	0
  14.64	63.9795
  14.66	63.9795
  14.67	0
  14.69	63.9795
  14.70	63.9795
  14.72	0
  14.73	0
  14.75	31.9898
  14.77	0
  14.78	0
  14.80	0
  14.81	63.9795
  14.83	31.9898
  14.84	63.9795
  14.86	31.9898
  14.88	0
  14.89	31.9898
  14.91	95.9693
  14.92	0
  14.94	0
  14.95	95.9693
  14.97	95.9693
  14.98	0
  15.00	95.9693
  15.02	63.9795
  15.03	63.9795
  15.05	31.9898
  15.06	95.9693
  15.08	31.9898
  15.09	31.9898
  15.11	31.9898
  15.13	95.9693
  15.14	63.9795
  15.16	63.9795
  15.17	95.9693
  15.19	63.9795
  15.20	0
  15.22	31.9898
  15.23	159.949
  15.25	63.9795
  15.27	63.9795
  15.28	0
  15.30	31.9898
  15.31	63.9795
  15.33	95.9693
  15.34	95.9693
  15.36	31.9898
  15.38	0
  15.39	31.9898
  15.41	127.959
  15.42	0
  15.44	191.939
  15.45	0
  15.47	127.959
  15.48	63.9795
  15.50	31.9898
  15.52	63.9795
  15.53	31.9898
  15.55	31.9898
  15.56	31.9898
  15.58	0
  15.59	0
  15.61	0
  15.63	31.9898
  15.64	63.9795
  15.66	0
  15.67	31.9898
  15.69	0
  15.70	0
  15.72	63.9795
  15.73	0
  15.75	0
  15.77	0
  15.78	0
  15.80	31.9898
  15.81	0
  15.83	0
  15.84	0
  15.86	31.9898
  15.88	31.9898
  15.89	0
  15.91	0
  15.92	0
  15.94	31.9898
  15.95	0
  15.97	31.9898
  15.98	0
?	?
