ASCII SCAN ANALOG DATA:			h3_3e.sac
DATE:	4/26/2012	TIME:	10:36:19 PM

Number of stored SCA cycles			1
Converted SCA cycle			1

INFO SCAN:		1
Data Titel	Countrate
Data Unit	cps
Scan Titel	Energy
Scan Unit	eV
Comment	
First Mass	-10.00
Scan Width	13
Values/Mass	64
Zoom Start	-10.00
Zoom End	  3.00

INFO ADDI DATA:		1
Title	Mass
Unit	amu
Comment	

Cycle	CycleDate	CycleTime	
1	4/26/2012	10:36:19 PM:14
AddiData	1
3
ScanData	1
 -10.00	0
  -9.98	0
  -9.97	0
  -9.95	0
  -9.94	0
  -9.92	0
  -9.91	0
  -9.89	0
  -9.88	0
  -9.86	0
  -9.84	0
  -9.83	0
  -9.81	0
  -9.80	0
  -9.78	0
  -9.77	0
  -9.75	0
  -9.73	0
  -9.72	0
  -9.70	0
  -9.69	0
  -9.67	0
  -9.66	0
  -9.64	0
  -9.63	0
  -9.61	0
  -9.59	0
  -9.58	0
  -9.56	0
  -9.55	0
  -9.53	0
  -9.52	0
  -9.50	0
  -9.48	0
  -9.47	0
  -9.45	0
  -9.44	0
  -9.42	0
  -9.41	0
  -9.39	0
  -9.38	0
  -9.36	0
  -9.34	0
  -9.33	0
  -9.31	0
  -9.30	0
  -9.28	0
  -9.27	0
  -9.25	0
  -9.23	0
  -9.22	0
  -9.20	0
  -9.19	0
  -9.17	0
  -9.16	0
  -9.14	0
  -9.13	0
  -9.11	0
  -9.09	0
  -9.08	0
  -9.06	0
  -9.05	0
  -9.03	0
  -9.02	0
  -9.00	0
  -8.98	0
  -8.97	0
  -8.95	0
  -8.94	0
  -8.92	0
  -8.91	0
  -8.89	0
  -8.88	0
  -8.86	0
  -8.84	0
  -8.83	0
  -8.81	0
  -8.80	0
  -8.78	0
  -8.77	0
  -8.75	0
  -8.73	0
  -8.72	0
  -8.70	0
  -8.69	0
  -8.67	0
  -8.66	0
  -8.64	0
  -8.63	0
  -8.61	0
  -8.59	0
  -8.58	0
  -8.56	0
  -8.55	0
  -8.53	0
  -8.52	0
  -8.50	0
  -8.48	0
  -8.47	0
  -8.45	0
  -8.44	0
  -8.42	0
  -8.41	0
  -8.39	0
  -8.38	0
  -8.36	0
  -8.34	0
  -8.33	0
  -8.31	0
  -8.30	0
  -8.28	0
  -8.27	0
  -8.25	0
  -8.23	0
  -8.22	0
  -8.20	0
  -8.19	0
  -8.17	0
  -8.16	0
  -8.14	0
  -8.13	0
  -8.11	0
  -8.09	0
  -8.08	0
  -8.06	0
  -8.05	0
  -8.03	0
  -8.02	0
  -8.00	0
  -7.98	0
  -7.97	0
  -7.95	0
  -7.94	0
  -7.92	0
  -7.91	0
  -7.89	0
  -7.88	0
  -7.86	0
  -7.84	0
  -7.83	0
  -7.81	0
  -7.80	0
  -7.78	0
  -7.77	0
  -7.75	0
  -7.73	0
  -7.72	0
  -7.70	0
  -7.69	0
  -7.67	0
  -7.66	0
  -7.64	0
  -7.63	0
  -7.61	0
  -7.59	0
  -7.58	0
  -7.56	0
  -7.55	0
  -7.53	0
  -7.52	0
  -7.50	0
  -7.48	0
  -7.47	0
  -7.45	0
  -7.44	0
  -7.42	31.9898
  -7.41	0
  -7.39	0
  -7.38	0
  -7.36	0
  -7.34	0
  -7.33	0
  -7.31	0
  -7.30	0
  -7.28	0
  -7.27	0
  -7.25	0
  -7.23	0
  -7.22	0
  -7.20	0
  -7.19	0
  -7.17	0
  -7.16	0
  -7.14	0
  -7.13	0
  -7.11	0
  -7.09	0
  -7.08	0
  -7.06	0
  -7.05	0
  -7.03	0
  -7.02	31.9898
  -7.00	0
  -6.98	0
  -6.97	0
  -6.95	0
  -6.94	0
  -6.92	0
  -6.91	0
  -6.89	0
  -6.88	0
  -6.86	0
  -6.84	0
  -6.83	0
  -6.81	31.9898
  -6.80	31.9898
  -6.78	0
  -6.77	0
  -6.75	0
  -6.73	0
  -6.72	0
  -6.70	0
  -6.69	0
  -6.67	31.9898
  -6.66	0
  -6.64	0
  -6.63	0
  -6.61	0
  -6.59	0
  -6.58	0
  -6.56	0
  -6.55	31.9898
  -6.53	0
  -6.52	31.9898
  -6.50	31.9898
  -6.48	0
  -6.47	0
  -6.45	0
  -6.44	0
  -6.42	63.9795
  -6.41	0
  -6.39	31.9898
  -6.38	0
  -6.36	31.9898
  -6.34	0
  -6.33	0
  -6.31	31.9898
  -6.30	31.9898
  -6.28	0
  -6.27	0
  -6.25	95.9693
  -6.23	31.9898
  -6.22	31.9898
  -6.20	0
  -6.19	0
  -6.17	63.9795
  -6.16	0
  -6.14	31.9898
  -6.13	0
  -6.11	63.9795
  -6.09	0
  -6.08	0
  -6.06	31.9898
  -6.05	0
  -6.03	0
  -6.02	31.9898
  -6.00	63.9795
  -5.98	0
  -5.97	31.9898
  -5.95	31.9898
  -5.94	0
  -5.92	0
  -5.91	0
  -5.89	0
  -5.88	0
  -5.86	0
  -5.84	0
  -5.83	0
  -5.81	0
  -5.80	0
  -5.78	63.9795
  -5.77	0
  -5.75	0
  -5.73	0
  -5.72	0
  -5.70	0
  -5.69	63.9795
  -5.67	31.9898
  -5.66	0
  -5.64	0
  -5.63	0
  -5.61	31.9898
  -5.59	95.9693
  -5.58	0
  -5.56	31.9898
  -5.55	0
  -5.53	63.9795
  -5.52	0
  -5.50	0
  -5.48	31.9898
  -5.47	31.9898
  -5.45	0
  -5.44	0
  -5.42	95.9693
  -5.41	0
  -5.39	31.9898
  -5.38	31.9898
  -5.36	31.9898
  -5.34	31.9898
  -5.33	0
  -5.31	0
  -5.30	0
  -5.28	0
  -5.27	31.9898
  -5.25	0
  -5.23	0
  -5.22	31.9898
  -5.20	0
  -5.19	0
  -5.17	63.9795
  -5.16	0
  -5.14	31.9898
  -5.13	31.9898
  -5.11	31.9898
  -5.09	31.9898
  -5.08	31.9898
  -5.06	0
  -5.05	0
  -5.03	0
  -5.02	0
  -5.00	31.9898
  -4.98	0
  -4.97	0
  -4.95	0
  -4.94	63.9795
  -4.92	31.9898
  -4.91	63.9795
  -4.89	0
  -4.88	63.9795
  -4.86	0
  -4.84	31.9898
  -4.83	31.9898
  -4.81	31.9898
  -4.80	0
  -4.78	31.9898
  -4.77	0
  -4.75	63.9795
  -4.73	0
  -4.72	31.9898
  -4.70	63.9795
  -4.69	0
  -4.67	63.9795
  -4.66	31.9898
  -4.64	0
  -4.63	31.9898
  -4.61	31.9898
  -4.59	63.9795
  -4.58	31.9898
  -4.56	0
  -4.55	31.9898
  -4.53	95.9693
  -4.52	31.9898
  -4.50	0
  -4.48	63.9795
  -4.47	0
  -4.45	0
  -4.44	63.9795
  -4.42	63.9795
  -4.41	63.9795
  -4.39	0
  -4.38	63.9795
  -4.36	63.9795
  -4.34	0
  -4.33	31.9898
  -4.31	31.9898
  -4.30	0
  -4.28	63.9795
  -4.27	0
  -4.25	31.9898
  -4.23	127.959
  -4.22	63.9795
  -4.20	31.9898
  -4.19	0
  -4.17	0
  -4.16	0
  -4.14	31.9898
  -4.13	95.9693
  -4.11	31.9898
  -4.09	0
  -4.08	31.9898
  -4.06	0
  -4.05	0
  -4.03	31.9898
  -4.02	63.9795
  -4.00	63.9795
  -3.98	63.9795
  -3.97	63.9795
  -3.95	63.9795
  -3.94	127.959
  -3.92	63.9795
  -3.91	31.9898
  -3.89	0
  -3.88	63.9795
  -3.86	63.9795
  -3.84	159.949
  -3.83	31.9898
  -3.81	63.9795
  -3.80	31.9898
  -3.78	95.9693
  -3.77	63.9795
  -3.75	159.949
  -3.73	95.9693
  -3.72	63.9795
  -3.70	31.9898
  -3.69	0
  -3.67	0
  -3.66	0
  -3.64	0
  -3.63	127.959
  -3.61	127.959
  -3.59	0
  -3.58	95.9693
  -3.56	95.9693
  -3.55	127.959
  -3.53	31.9898
  -3.52	63.9795
  -3.50	159.949
  -3.48	95.9693
  -3.47	95.9693
  -3.45	63.9795
  -3.44	0
  -3.42	63.9795
  -3.41	63.9795
  -3.39	95.9693
  -3.38	159.949
  -3.36	31.9898
  -3.34	63.9795
  -3.33	127.959
  -3.31	0
  -3.30	31.9898
  -3.28	95.9693
  -3.27	191.939
  -3.25	95.9693
  -3.23	95.9693
  -3.22	191.939
  -3.20	31.9898
  -3.19	159.949
  -3.17	95.9693
  -3.16	159.949
  -3.14	127.959
  -3.13	127.959
  -3.11	63.9795
  -3.09	95.9693
  -3.08	0
  -3.06	159.949
  -3.05	159.949
  -3.03	63.9795
  -3.02	223.928
  -3.00	159.949
  -2.98	223.928
  -2.97	191.939
  -2.95	63.9795
  -2.94	159.949
  -2.92	63.9795
  -2.91	95.9693
  -2.89	159.949
  -2.88	159.949
  -2.86	191.939
  -2.84	63.9795
  -2.83	127.959
  -2.81	127.959
  -2.80	223.928
  -2.78	127.959
  -2.77	127.959
  -2.75	191.939
  -2.73	159.949
  -2.72	159.949
  -2.70	191.939
  -2.69	191.939
  -2.67	127.959
  -2.66	223.928
  -2.64	95.9693
  -2.63	223.928
  -2.61	95.9693
  -2.59	159.949
  -2.58	223.928
  -2.56	95.9693
  -2.55	191.939
  -2.53	95.9693
  -2.52	223.928
  -2.50	319.898
  -2.48	127.959
  -2.47	223.928
  -2.45	255.918
  -2.44	287.908
  -2.42	191.939
  -2.41	319.898
  -2.39	191.939
  -2.38	319.898
  -2.36	287.908
  -2.34	255.918
  -2.33	223.928
  -2.31	127.959
  -2.30	159.949
  -2.28	159.949
  -2.27	223.928
  -2.25	319.898
  -2.23	223.928
  -2.22	383.877
  -2.20	287.908
  -2.19	287.908
  -2.17	511.836
  -2.16	287.908
  -2.14	383.877
  -2.13	383.877
  -2.11	319.898
  -2.09	543.826
  -2.08	127.959
  -2.06	447.857
  -2.05	255.918
  -2.03	127.959
  -2.02	351.888
  -2.00	415.867
  -1.98	671.785
  -1.97	447.857
  -1.95	319.898
  -1.94	383.877
  -1.92	511.836
  -1.91	511.836
  -1.89	383.877
  -1.88	543.826
  -1.86	671.785
  -1.84	447.857
  -1.83	607.806
  -1.81	575.816
  -1.80	447.857
  -1.78	543.826
  -1.77	703.775
  -1.75	703.775
  -1.73	703.775
  -1.72	511.836
  -1.70	831.734
  -1.69	575.816
  -1.67	479.847
  -1.66	671.785
  -1.64	511.836
  -1.63	671.785
  -1.61	607.806
  -1.59	767.755
  -1.58	447.857
  -1.56	575.816
  -1.55	959.693
  -1.53	671.785
  -1.52	895.714
  -1.50	927.703
  -1.48	575.816
  -1.47	831.734
  -1.45	799.744
  -1.44	799.744
  -1.42	735.765
  -1.41	607.806
  -1.39	831.734
  -1.38	1151.63
  -1.36	927.703
  -1.34	735.765
  -1.33	1119.64
  -1.31	1279.59
  -1.30	1023.67
  -1.28	1087.65
  -1.27	1151.63
  -1.25	1311.58
  -1.23	1055.66
  -1.22	1375.56
  -1.20	1311.58
  -1.19	1215.61
  -1.17	1567.5
  -1.16	1535.51
  -1.14	1471.53
  -1.13	1247.6
  -1.11	1343.57
  -1.09	1375.56
  -1.08	1311.58
  -1.06	1823.42
  -1.05	1503.52
  -1.03	1535.51
  -1.02	1695.46
  -1.00	1695.46
  -0.98	2111.32
  -0.97	1951.38
  -0.95	2271.27
  -0.94	1791.43
  -0.92	1983.37
  -0.91	1919.39
  -0.89	2175.3
  -0.88	2143.31
  -0.86	2111.32
  -0.84	2783.11
  -0.83	2495.2
  -0.81	2495.2
  -0.80	2463.21
  -0.78	2815.1
  -0.77	2591.17
  -0.75	2879.08
  -0.73	3007.04
  -0.72	2591.17
  -0.70	3039.03
  -0.69	2943.06
  -0.67	3358.93
  -0.66	2975.05
  -0.64	3071.02
  -0.63	3294.95
  -0.61	3646.83
  -0.59	3678.82
  -0.58	4318.62
  -0.56	4190.66
  -0.55	4094.69
  -0.53	4734.49
  -0.52	4350.61
  -0.50	4478.57
  -0.48	4734.49
  -0.47	5470.25
  -0.45	5406.27
  -0.44	6142.04
  -0.42	6014.08
  -0.41	5598.21
  -0.39	5374.28
  -0.38	6781.83
  -0.36	7101.73
  -0.34	7901.47
  -0.33	8061.42
  -0.31	8189.38
  -0.30	9404.99
  -0.28	8445.3
  -0.27	9852.85
  -0.25	10236.7
  -0.23	10940.5
  -0.22	12124.1
  -0.20	11708.3
  -0.19	13563.7
  -0.17	15067.2
  -0.16	15291.1
  -0.14	17082.5
  -0.13	16954.6
  -0.11	18554.1
  -0.09	18714
  -0.08	22808.7
  -0.06	22168.9
  -0.05	23224.6
  -0.03	26711.5
  -0.02	31414
   0.00	32341.7
   0.02	35380.7
   0.03	38803.6
   0.05	42226.5
   0.06	45105.6
   0.08	49232.3
   0.09	53646.8
   0.11	60716.6
   0.13	66378.8
   0.14	72168.9
   0.16	78343
   0.17	83589.3
   0.19	92514.4
   0.20	103455
   0.22	116923
   0.23	127831
   0.25	134197
   0.27	148880
   0.28	160461
   0.30	173640
   0.31	179847
   0.33	195490
   0.34	208381
   0.36	232182
   0.38	236948
   0.39	250160
   0.41	258541
   0.42	274440
   0.44	288548
   0.45	296801
   0.47	307454
   0.48	314236
   0.50	319610
   0.52	329463
   0.53	335637
   0.55	334997
   0.56	338580
   0.58	339667
   0.59	343346
   0.61	330582
   0.63	333301
   0.64	328279
   0.66	320825
   0.67	312668
   0.69	300000
   0.70	285509
   0.72	261676
   0.73	248465
   0.75	239284
   0.77	222041
   0.78	204767
   0.80	183269
   0.81	168074
   0.83	149840
   0.84	139219
   0.86	119802
   0.88	103391
   0.89	97696.8
   0.91	84069.1
   0.92	74632.1
   0.94	61900.2
   0.95	54990.4
   0.97	52495.2
   0.98	42706.3
   1.00	35892.5
   1.02	31541.9
   1.03	28918.8
   1.05	23992.3
   1.06	21113.3
   1.08	17370.4
   1.09	14971.2
   1.11	11836.2
   1.13	10204.7
   1.14	7613.57
   1.16	6781.83
   1.17	5278.31
   1.19	4542.55
   1.20	3934.74
   1.22	2687.14
   1.23	1951.38
   1.25	1471.53
   1.27	1311.58
   1.28	1183.62
   1.30	575.816
   1.31	223.928
   1.33	223.928
   1.34	191.939
   1.36	191.939
   1.38	127.959
   1.39	63.9795
   1.41	31.9898
   1.42	31.9898
   1.44	0
   1.45	31.9898
   1.47	0
   1.48	0
   1.50	0
   1.52	0
   1.53	0
   1.55	0
   1.56	0
   1.58	0
   1.59	0
   1.61	0
   1.63	0
   1.64	0
   1.66	0
   1.67	0
   1.69	0
   1.70	0
   1.72	0
   1.73	0
   1.75	0
   1.77	0
   1.78	0
   1.80	0
   1.81	0
   1.83	0
   1.84	0
   1.86	0
   1.88	0
   1.89	0
   1.91	0
   1.92	0
   1.94	0
   1.95	0
   1.97	0
   1.98	0
   2.00	0
   2.02	0
   2.03	0
   2.05	0
   2.06	0
   2.08	0
   2.09	0
   2.11	0
   2.13	0
   2.14	0
   2.16	0
   2.17	0
   2.19	0
   2.20	0
   2.22	0
   2.23	0
   2.25	0
   2.27	0
   2.28	0
   2.30	0
   2.31	0
   2.33	0
   2.34	0
   2.36	0
   2.38	0
   2.39	0
   2.41	0
   2.42	0
   2.44	0
   2.45	0
   2.47	0
   2.48	0
   2.50	0
   2.52	0
   2.53	0
   2.55	0
   2.56	0
   2.58	0
   2.59	0
   2.61	0
   2.63	0
   2.64	0
   2.66	0
   2.67	0
   2.69	0
   2.70	0
   2.72	0
   2.73	0
   2.75	0
   2.77	0
   2.78	0
   2.80	0
   2.81	0
   2.83	0
   2.84	0
   2.86	0
   2.88	0
   2.89	0
   2.91	0
   2.92	0
   2.94	0
   2.95	0
   2.97	0
   2.98	0
?	?
