#                                                                                
# Lorentzian broadening with gamma= 0.100000  [eV]
# Im(epsilon) shifted by   0.0000   [eV]
# No intraband contributions added
#
# Energy Im_eps_xx Im_eps_yy Im_eps_zz
0.013610 0.261031E-01 0.275387E-01 0.268613E-01
0.040820 0.263557E-01 0.278086E-01 0.271156E-01
0.068030 0.266124E-01 0.280829E-01 0.273739E-01
0.095240 0.268733E-01 0.283616E-01 0.276363E-01
0.122450 0.271384E-01 0.286450E-01 0.279030E-01
0.149660 0.274079E-01 0.289330E-01 0.281739E-01
0.176870 0.276818E-01 0.292258E-01 0.284493E-01
0.204090 0.279604E-01 0.295236E-01 0.287292E-01
0.231300 0.282435E-01 0.298263E-01 0.290137E-01
0.258510 0.285315E-01 0.301341E-01 0.293029E-01
0.285720 0.288243E-01 0.304473E-01 0.295970E-01
0.312930 0.291221E-01 0.307658E-01 0.298960E-01
0.340140 0.294251E-01 0.310898E-01 0.302000E-01
0.367350 0.297334E-01 0.314195E-01 0.305093E-01
0.394570 0.300471E-01 0.317551E-01 0.308240E-01
0.421780 0.303663E-01 0.320966E-01 0.311441E-01
0.448990 0.306911E-01 0.324441E-01 0.314697E-01
0.476200 0.310218E-01 0.327979E-01 0.318011E-01
0.503410 0.313584E-01 0.331581E-01 0.321384E-01
0.530620 0.317011E-01 0.335249E-01 0.324817E-01
0.557830 0.320501E-01 0.338984E-01 0.328312E-01
0.585040 0.324056E-01 0.342789E-01 0.331871E-01
0.612260 0.327678E-01 0.346666E-01 0.335496E-01
0.639470 0.331367E-01 0.350614E-01 0.339187E-01
0.666680 0.335125E-01 0.354638E-01 0.342946E-01
0.693890 0.338955E-01 0.358738E-01 0.346777E-01
0.721100 0.342858E-01 0.362918E-01 0.350679E-01
0.748310 0.346838E-01 0.367178E-01 0.354657E-01
0.775520 0.350894E-01 0.371523E-01 0.358711E-01
0.802740 0.355033E-01 0.375955E-01 0.362845E-01
0.829950 0.359252E-01 0.380473E-01 0.367059E-01
0.857160 0.363555E-01 0.385082E-01 0.371356E-01
0.884370 0.367946E-01 0.389785E-01 0.375739E-01
0.911580 0.372426E-01 0.394584E-01 0.380210E-01
0.938790 0.376998E-01 0.399481E-01 0.384772E-01
0.966000 0.381666E-01 0.404481E-01 0.389427E-01
0.993220 0.386432E-01 0.409587E-01 0.394181E-01
1.020430 0.391298E-01 0.414800E-01 0.399032E-01
1.047640 0.396268E-01 0.420124E-01 0.403985E-01
1.074850 0.401344E-01 0.425563E-01 0.409044E-01
1.102060 0.406531E-01 0.431120E-01 0.414211E-01
1.129270 0.411832E-01 0.436799E-01 0.419491E-01
1.156480 0.417251E-01 0.442604E-01 0.424887E-01
1.183700 0.422792E-01 0.448541E-01 0.430403E-01
1.210910 0.428457E-01 0.454610E-01 0.436042E-01
1.238120 0.434251E-01 0.460817E-01 0.441808E-01
1.265330 0.440179E-01 0.467168E-01 0.447705E-01
1.292540 0.446245E-01 0.473666E-01 0.453739E-01
1.319750 0.452454E-01 0.480317E-01 0.459913E-01
1.346960 0.458810E-01 0.487126E-01 0.466233E-01
1.374180 0.465322E-01 0.494102E-01 0.472706E-01
1.401390 0.471990E-01 0.501243E-01 0.479332E-01
1.428600 0.478821E-01 0.508560E-01 0.486121E-01
1.455810 0.485822E-01 0.516057E-01 0.493076E-01
1.483020 0.493000E-01 0.523743E-01 0.500205E-01
1.510230 0.500359E-01 0.531623E-01 0.507514E-01
1.537440 0.507908E-01 0.539705E-01 0.515010E-01
1.564660 0.515656E-01 0.547999E-01 0.522703E-01
1.591870 0.523605E-01 0.556507E-01 0.530593E-01
1.619080 0.531766E-01 0.565240E-01 0.538693E-01
1.646290 0.540147E-01 0.574208E-01 0.547011E-01
1.673500 0.548757E-01 0.583418E-01 0.555554E-01
1.700710 0.557605E-01 0.592882E-01 0.564333E-01
1.727920 0.566701E-01 0.602608E-01 0.573357E-01
1.755130 0.576055E-01 0.612609E-01 0.582636E-01
1.782350 0.585681E-01 0.622897E-01 0.592184E-01
1.809560 0.595584E-01 0.633479E-01 0.602007E-01
1.836770 0.605780E-01 0.644371E-01 0.612119E-01
1.863980 0.616281E-01 0.655585E-01 0.622533E-01
1.891190 0.627101E-01 0.667135E-01 0.633264E-01
1.918400 0.638255E-01 0.679038E-01 0.644325E-01
1.945610 0.649757E-01 0.691307E-01 0.655732E-01
1.972830 0.661629E-01 0.703965E-01 0.667506E-01
2.000040 0.673879E-01 0.717021E-01 0.679655E-01
2.027250 0.686529E-01 0.730497E-01 0.692202E-01
2.054460 0.699601E-01 0.744413E-01 0.705167E-01
2.081670 0.713113E-01 0.758792E-01 0.718571E-01
2.108880 0.727090E-01 0.773656E-01 0.732438E-01
2.136090 0.741555E-01 0.789028E-01 0.746790E-01
2.163310 0.756540E-01 0.804941E-01 0.761660E-01
2.190520 0.772060E-01 0.821412E-01 0.777064E-01
2.217730 0.788152E-01 0.838474E-01 0.793039E-01
2.244940 0.804847E-01 0.856161E-01 0.809616E-01
2.272150 0.822179E-01 0.874506E-01 0.826829E-01
2.299360 0.840186E-01 0.893546E-01 0.844718E-01
2.326570 0.858908E-01 0.913321E-01 0.863323E-01
2.353790 0.878396E-01 0.933881E-01 0.882694E-01
2.381000 0.898683E-01 0.955257E-01 0.902866E-01
2.408210 0.919826E-01 0.977506E-01 0.923898E-01
2.435420 0.941883E-01 0.100068E+00 0.945847E-01
2.462630 0.964913E-01 0.102484E+00 0.968775E-01
2.489840 0.988985E-01 0.105006E+00 0.992750E-01
2.517050 0.101417E+00 0.107639E+00 0.101785E+00
2.544270 0.104056E+00 0.110392E+00 0.104416E+00
2.571480 0.106823E+00 0.113273E+00 0.107175E+00
2.598690 0.109728E+00 0.116290E+00 0.110075E+00
2.625900 0.112782E+00 0.119454E+00 0.113124E+00
2.653110 0.115997E+00 0.122777E+00 0.116337E+00
2.680320 0.119388E+00 0.126269E+00 0.119727E+00
2.707530 0.122968E+00 0.129946E+00 0.123309E+00
2.734750 0.126758E+00 0.133823E+00 0.127103E+00
2.761960 0.130773E+00 0.137915E+00 0.131125E+00
2.789170 0.135038E+00 0.142242E+00 0.135400E+00
2.816380 0.139577E+00 0.146826E+00 0.139954E+00
2.843590 0.144419E+00 0.151691E+00 0.144816E+00
2.870800 0.149600E+00 0.156865E+00 0.150020E+00
2.898010 0.155158E+00 0.162381E+00 0.155607E+00
2.925220 0.161140E+00 0.168275E+00 0.161620E+00
2.952440 0.167603E+00 0.174592E+00 0.168113E+00
2.979650 0.174609E+00 0.181376E+00 0.175138E+00
3.006860 0.182239E+00 0.188683E+00 0.182766E+00
3.034070 0.190588E+00 0.196576E+00 0.191079E+00
3.061280 0.199776E+00 0.205128E+00 0.200181E+00
3.088490 0.209951E+00 0.214425E+00 0.210198E+00
3.115700 0.221300E+00 0.224575E+00 0.221287E+00
3.142920 0.234070E+00 0.235713E+00 0.233646E+00
3.170130 0.248568E+00 0.247993E+00 0.247506E+00
3.197340 0.265209E+00 0.261620E+00 0.263172E+00
3.224550 0.284527E+00 0.276846E+00 0.281027E+00
3.251760 0.307185E+00 0.293994E+00 0.301575E+00
3.278970 0.333930E+00 0.313487E+00 0.325478E+00
3.306180 0.365484E+00 0.335882E+00 0.353612E+00
3.333400 0.402500E+00 0.361923E+00 0.387154E+00
3.360610 0.445656E+00 0.392536E+00 0.427632E+00
3.387820 0.496025E+00 0.428905E+00 0.477128E+00
3.415030 0.555233E+00 0.472440E+00 0.538355E+00
3.442240 0.625387E+00 0.524854E+00 0.614666E+00
3.469450 0.708467E+00 0.588302E+00 0.709648E+00
3.496660 0.805111E+00 0.665335E+00 0.825873E+00
3.523880 0.913614E+00 0.758348E+00 0.963030E+00
3.551090 0.103009E+01 0.868274E+00 0.111700E+01
3.578300 0.115018E+01 0.993890E+00 0.128249E+01
3.605510 0.127025E+01 0.113203E+01 0.145580E+01
3.632720 0.138747E+01 0.127856E+01 0.163342E+01
3.659930 0.149867E+01 0.142857E+01 0.180571E+01
3.687140 0.159995E+01 0.157648E+01 0.195219E+01
3.714360 0.168792E+01 0.171751E+01 0.205040E+01
3.741570 0.176185E+01 0.185061E+01 0.209968E+01
3.768780 0.182591E+01 0.197972E+01 0.212634E+01
3.795990 0.188851E+01 0.210953E+01 0.215663E+01
3.823200 0.195882E+01 0.224300E+01 0.220138E+01
3.850410 0.204386E+01 0.238320E+01 0.226124E+01
3.877620 0.214699E+01 0.253501E+01 0.233234E+01
3.904840 0.226819E+01 0.270223E+01 0.241015E+01
3.932050 0.240650E+01 0.288138E+01 0.249454E+01
3.959260 0.256244E+01 0.306038E+01 0.259125E+01
3.986470 0.273502E+01 0.322645E+01 0.270765E+01
4.013680 0.291569E+01 0.337696E+01 0.284624E+01
4.040890 0.308873E+01 0.351885E+01 0.300198E+01
4.068100 0.324049E+01 0.366020E+01 0.316723E+01
4.095310 0.336852E+01 0.380438E+01 0.333537E+01
4.122530 0.348157E+01 0.394804E+01 0.349626E+01
4.149740 0.359114E+01 0.408575E+01 0.363491E+01
4.176950 0.370756E+01 0.421740E+01 0.374079E+01
4.204160 0.384005E+01 0.434925E+01 0.381300E+01
4.231370 0.399540E+01 0.449215E+01 0.385975E+01
4.258580 0.417463E+01 0.465779E+01 0.389758E+01
4.285790 0.436995E+01 0.485108E+01 0.394371E+01
4.313010 0.456615E+01 0.506664E+01 0.400804E+01
4.340220 0.474782E+01 0.529712E+01 0.409556E+01
4.367430 0.490812E+01 0.554119E+01 0.421048E+01
4.394640 0.504915E+01 0.579032E+01 0.435364E+01
4.421850 0.517821E+01 0.602029E+01 0.451827E+01
4.449060 0.530472E+01 0.620475E+01 0.468870E+01
4.476270 0.543373E+01 0.633037E+01 0.484414E+01
4.503490 0.555909E+01 0.640007E+01 0.497000E+01
4.530700 0.566770E+01 0.642121E+01 0.506437E+01
4.557910 0.575172E+01 0.639454E+01 0.513015E+01
4.585120 0.581159E+01 0.632406E+01 0.516475E+01
4.612330 0.584817E+01 0.622812E+01 0.516052E+01
4.639540 0.585845E+01 0.612866E+01 0.511458E+01
4.666750 0.583813E+01 0.603227E+01 0.503381E+01
4.693970 0.578438E+01 0.593090E+01 0.492816E+01
4.721180 0.569923E+01 0.582149E+01 0.480562E+01
4.748390 0.559264E+01 0.571041E+01 0.467314E+01
4.775600 0.548104E+01 0.560532E+01 0.453854E+01
4.802810 0.537877E+01 0.551312E+01 0.440943E+01
4.830020 0.529274E+01 0.543869E+01 0.429079E+01
4.857230 0.522435E+01 0.538310E+01 0.418557E+01
4.884450 0.517047E+01 0.534496E+01 0.409664E+01
4.911660 0.512266E+01 0.532275E+01 0.402663E+01
4.938870 0.507071E+01 0.531611E+01 0.397607E+01
4.966080 0.501007E+01 0.532515E+01 0.394214E+01
4.993290 0.494360E+01 0.534859E+01 0.391823E+01
5.020500 0.487524E+01 0.538375E+01 0.389532E+01
5.047710 0.480661E+01 0.542954E+01 0.386524E+01
5.074930 0.473877E+01 0.548691E+01 0.382408E+01
5.102140 0.467435E+01 0.555243E+01 0.377357E+01
5.129350 0.461610E+01 0.561581E+01 0.371967E+01
5.156560 0.456406E+01 0.566505E+01 0.366855E+01
5.183770 0.451567E+01 0.569359E+01 0.362375E+01
5.210980 0.446779E+01 0.570250E+01 0.358713E+01
5.238190 0.441938E+01 0.569733E+01 0.355999E+01
5.265400 0.437410E+01 0.568426E+01 0.354357E+01
5.292620 0.433910E+01 0.566614E+01 0.353888E+01
5.319830 0.431931E+01 0.564182E+01 0.354584E+01
5.347040 0.431248E+01 0.561112E+01 0.356332E+01
5.374250 0.431220E+01 0.557937E+01 0.358939E+01
5.401460 0.431426E+01 0.555542E+01 0.362110E+01
5.428670 0.431784E+01 0.554636E+01 0.365500E+01
5.455880 0.432389E+01 0.555397E+01 0.368857E+01
5.483100 0.433523E+01 0.557388E+01 0.372215E+01
5.510310 0.435598E+01 0.559894E+01 0.375879E+01
5.537520 0.438884E+01 0.562600E+01 0.380104E+01
5.564730 0.443223E+01 0.565755E+01 0.384681E+01
5.591940 0.447895E+01 0.569517E+01 0.388978E+01
5.619150 0.451997E+01 0.573659E+01 0.392424E+01
5.646360 0.454945E+01 0.577846E+01 0.394813E+01
5.673580 0.456391E+01 0.581679E+01 0.396250E+01
5.700790 0.456168E+01 0.584770E+01 0.397239E+01
5.728000 0.454514E+01 0.586984E+01 0.398574E+01
5.755210 0.452013E+01 0.588425E+01 0.400806E+01
5.782420 0.449226E+01 0.589125E+01 0.404030E+01
5.809630 0.446594E+01 0.588535E+01 0.408239E+01
5.836840 0.444610E+01 0.585523E+01 0.413540E+01
5.864060 0.443718E+01 0.579377E+01 0.420002E+01
5.891270 0.443979E+01 0.570606E+01 0.427503E+01
5.918480 0.444807E+01 0.560400E+01 0.435485E+01
5.945690 0.445494E+01 0.549911E+01 0.442998E+01
5.972900 0.446187E+01 0.540048E+01 0.449398E+01
6.000110 0.447850E+01 0.531181E+01 0.454911E+01
6.027320 0.451415E+01 0.523086E+01 0.460478E+01
6.054540 0.457152E+01 0.515410E+01 0.467143E+01
6.081750 0.464645E+01 0.508081E+01 0.475495E+01
6.108960 0.473079E+01 0.501273E+01 0.485355E+01
6.136170 0.481489E+01 0.495032E+01 0.495978E+01
6.163380 0.489233E+01 0.488986E+01 0.506899E+01
6.190590 0.496355E+01 0.482501E+01 0.518343E+01
6.217800 0.503392E+01 0.475106E+01 0.530763E+01
6.245020 0.510822E+01 0.466740E+01 0.544220E+01
6.272230 0.518659E+01 0.457896E+01 0.558205E+01
6.299440 0.526400E+01 0.449500E+01 0.572038E+01
6.326650 0.533266E+01 0.442582E+01 0.585446E+01
6.353860 0.538633E+01 0.437923E+01 0.598957E+01
6.381070 0.542360E+01 0.435858E+01 0.613572E+01
6.408280 0.544814E+01 0.436205E+01 0.629820E+01
6.435490 0.546430E+01 0.438233E+01 0.647380E+01
6.462710 0.547428E+01 0.440848E+01 0.665916E+01
6.489920 0.548091E+01 0.443212E+01 0.685267E+01
6.517130 0.548905E+01 0.445199E+01 0.704513E+01
6.544340 0.550376E+01 0.446972E+01 0.722128E+01
6.571550 0.552797E+01 0.448576E+01 0.737154E+01
6.598760 0.556095E+01 0.450120E+01 0.749520E+01
6.625970 0.559831E+01 0.451870E+01 0.759232E+01
6.653190 0.563509E+01 0.454063E+01 0.765664E+01
6.680400 0.567157E+01 0.457054E+01 0.768753E+01
6.707610 0.571288E+01 0.461527E+01 0.769989E+01
6.734820 0.576194E+01 0.468260E+01 0.771221E+01
6.762030 0.581559E+01 0.477752E+01 0.773530E+01
6.789240 0.586687E+01 0.489878E+01 0.777367E+01
6.816450 0.590949E+01 0.503443E+01 0.783019E+01
6.843670 0.594162E+01 0.516086E+01 0.790610E+01
6.870880 0.596181E+01 0.525022E+01 0.799958E+01
6.898090 0.596245E+01 0.528365E+01 0.810563E+01
6.925300 0.593578E+01 0.525926E+01 0.821590E+01
6.952510 0.588528E+01 0.519003E+01 0.831987E+01
6.979720 0.582169E+01 0.509278E+01 0.840595E+01
7.006930 0.575249E+01 0.498285E+01 0.846505E+01
7.034150 0.568110E+01 0.487682E+01 0.849322E+01
7.061360 0.561215E+01 0.478830E+01 0.848847E+01
7.088570 0.555100E+01 0.471883E+01 0.844716E+01
7.115780 0.549841E+01 0.465823E+01 0.836552E+01
7.142990 0.545102E+01 0.459671E+01 0.824478E+01
7.170200 0.540732E+01 0.453484E+01 0.809107E+01
7.197410 0.536903E+01 0.448144E+01 0.790877E+01
7.224630 0.533620E+01 0.444574E+01 0.770001E+01
7.251840 0.530583E+01 0.443232E+01 0.747141E+01
7.279050 0.527733E+01 0.444046E+01 0.723517E+01
7.306260 0.525431E+01 0.446398E+01 0.700374E+01
7.333470 0.523868E+01 0.449209E+01 0.678432E+01
7.360680 0.522618E+01 0.451516E+01 0.657863E+01
7.387890 0.520891E+01 0.452870E+01 0.638652E+01
7.415110 0.518127E+01 0.453323E+01 0.620833E+01
7.442320 0.514225E+01 0.453161E+01 0.604278E+01
7.469530 0.509248E+01 0.452573E+01 0.588610E+01
7.496740 0.503245E+01 0.451620E+01 0.573660E+01
7.523950 0.496484E+01 0.450424E+01 0.559750E+01
7.551160 0.489731E+01 0.449173E+01 0.547463E+01
7.578370 0.483849E+01 0.447757E+01 0.537124E+01
7.605580 0.479073E+01 0.445542E+01 0.528520E+01
7.632800 0.474903E+01 0.441817E+01 0.520882E+01
7.660010 0.470668E+01 0.436266E+01 0.513187E+01
7.687220 0.466072E+01 0.428977E+01 0.504744E+01
7.714430 0.461258E+01 0.420424E+01 0.495595E+01
7.741640 0.456540E+01 0.411407E+01 0.486381E+01
7.768850 0.452031E+01 0.402824E+01 0.478019E+01
7.796060 0.447536E+01 0.395374E+01 0.471288E+01
7.823280 0.442810E+01 0.389349E+01 0.466485E+01
7.850490 0.437781E+01 0.384684E+01 0.463360E+01
7.877700 0.432533E+01 0.381111E+01 0.461278E+01
7.904910 0.427191E+01 0.378440E+01 0.459593E+01
7.932120 0.421852E+01 0.376728E+01 0.458002E+01
7.959330 0.416515E+01 0.376173E+01 0.456715E+01
7.986540 0.411005E+01 0.376876E+01 0.456347E+01
8.013760 0.405025E+01 0.378717E+01 0.457426E+01
8.040970 0.398380E+01 0.381545E+01 0.460021E+01
8.068180 0.391185E+01 0.385379E+01 0.463852E+01
8.095390 0.383759E+01 0.390250E+01 0.468469E+01
8.122600 0.376246E+01 0.396003E+01 0.473244E+01
8.149810 0.368510E+01 0.402095E+01 0.477408E+01
8.177020 0.360352E+01 0.407332E+01 0.480373E+01
8.204240 0.351667E+01 0.410494E+01 0.482048E+01
8.231450 0.342449E+01 0.411420E+01 0.482542E+01
8.258660 0.332775E+01 0.410902E+01 0.481653E+01
8.285870 0.322877E+01 0.409903E+01 0.479000E+01
8.313080 0.313190E+01 0.408999E+01 0.474368E+01
8.340290 0.304163E+01 0.408194E+01 0.467891E+01
8.367500 0.295957E+01 0.407201E+01 0.460136E+01
8.394720 0.288438E+01 0.405693E+01 0.451801E+01
8.421930 0.281442E+01 0.403120E+01 0.443381E+01
8.449140 0.274914E+01 0.398695E+01 0.434943E+01
8.476350 0.268923E+01 0.391868E+01 0.426031E+01
8.503560 0.263555E+01 0.382756E+01 0.416171E+01
8.530770 0.258709E+01 0.372136E+01 0.405379E+01
8.557980 0.254005E+01 0.361019E+01 0.393849E+01
8.585200 0.248981E+01 0.350018E+01 0.381593E+01
8.612410 0.243382E+01 0.339112E+01 0.368532E+01
8.639620 0.237281E+01 0.328002E+01 0.354843E+01
8.666830 0.230991E+01 0.316475E+01 0.341138E+01
8.694040 0.224812E+01 0.304259E+01 0.328058E+01
8.721250 0.218921E+01 0.290739E+01 0.315982E+01
8.748460 0.213370E+01 0.274963E+01 0.305075E+01
8.775670 0.208118E+01 0.256505E+01 0.295327E+01
8.802890 0.203136E+01 0.236342E+01 0.286553E+01
8.830100 0.198542E+01 0.216312E+01 0.278500E+01
8.857310 0.194517E+01 0.197971E+01 0.270950E+01
8.884520 0.191066E+01 0.182090E+01 0.263778E+01
8.911730 0.187889E+01 0.168749E+01 0.256887E+01
8.938940 0.184536E+01 0.157712E+01 0.250122E+01
8.966150 0.180680E+01 0.148687E+01 0.243259E+01
8.993370 0.176260E+01 0.141386E+01 0.236111E+01
9.020580 0.171473E+01 0.135491E+01 0.228681E+01
9.047790 0.166661E+01 0.130616E+01 0.221140E+01
9.075000 0.162134E+01 0.126393E+01 0.213785E+01
9.102210 0.157991E+01 0.122579E+01 0.206965E+01
9.129420 0.154158E+01 0.119049E+01 0.200911E+01
9.156630 0.150571E+01 0.115697E+01 0.195570E+01
9.183850 0.147309E+01 0.112416E+01 0.190678E+01
9.211060 0.144515E+01 0.109128E+01 0.185993E+01
9.238270 0.142201E+01 0.105837E+01 0.181357E+01
9.265480 0.140173E+01 0.102628E+01 0.176597E+01
9.292690 0.138135E+01 0.995851E+00 0.171515E+01
9.319900 0.135846E+01 0.967608E+00 0.166042E+01
9.347110 0.133202E+01 0.942303E+00 0.160366E+01
9.374330 0.130330E+01 0.920765E+00 0.154728E+01
9.401540 0.127545E+01 0.903408E+00 0.149225E+01
9.428750 0.125036E+01 0.890349E+00 0.143836E+01
9.455960 0.122731E+01 0.882036E+00 0.138576E+01
9.483170 0.120462E+01 0.879085E+00 0.133555E+01
9.510380 0.118154E+01 0.881107E+00 0.128907E+01
9.537590 0.115856E+01 0.886068E+00 0.124724E+01
9.564810 0.113695E+01 0.891324E+00 0.121051E+01
9.592020 0.111813E+01 0.895345E+00 0.117897E+01
9.619230 0.110295E+01 0.897820E+00 0.115177E+01
9.646440 0.109079E+01 0.898147E+00 0.112678E+01
9.673650 0.107929E+01 0.895044E+00 0.110140E+01
9.700860 0.106602E+01 0.888164E+00 0.107375E+01
9.728070 0.105076E+01 0.879535E+00 0.104323E+01
9.755290 0.103623E+01 0.872496E+00 0.101047E+01
9.782500 0.102636E+01 0.869137E+00 0.976886E+00
9.809710 0.102340E+01 0.868408E+00 0.943997E+00
9.836920 0.102683E+01 0.866361E+00 0.913213E+00
9.864130 0.103482E+01 0.858639E+00 0.885926E+00
9.891340 0.104603E+01 0.843500E+00 0.863057E+00
9.918550 0.105970E+01 0.822829E+00 0.844583E+00
9.945760 0.107479E+01 0.800709E+00 0.829851E+00
9.972980 0.109006E+01 0.780948E+00 0.818098E+00
10.000190 0.110435E+01 0.765507E+00 0.809024E+00
10.027400 0.111675E+01 0.754814E+00 0.802940E+00
10.054610 0.112694E+01 0.748858E+00 0.800185E+00
10.081820 0.113504E+01 0.747580E+00 0.800633E+00
10.109030 0.114086E+01 0.750670E+00 0.803817E+00
10.136240 0.114348E+01 0.757594E+00 0.809438E+00
10.163460 0.114181E+01 0.768066E+00 0.817486E+00
10.190670 0.113552E+01 0.781942E+00 0.827914E+00
10.217880 0.112570E+01 0.798121E+00 0.840287E+00
10.245090 0.111426E+01 0.814044E+00 0.853537E+00
10.272300 0.110276E+01 0.827284E+00 0.866247E+00
10.299510 0.109198E+01 0.836879E+00 0.877403E+00
10.326720 0.108224E+01 0.842483E+00 0.886647E+00
10.353940 0.107340E+01 0.844235E+00 0.893585E+00
10.381150 0.106398E+01 0.844341E+00 0.897198E+00
10.408360 0.105128E+01 0.846847E+00 0.896632E+00
10.435570 0.103289E+01 0.855144E+00 0.892195E+00
10.462780 0.100798E+01 0.870423E+00 0.884600E+00
10.489990 0.977751E+00 0.891839E+00 0.873874E+00
10.517200 0.945758E+00 0.916122E+00 0.859600E+00
10.544420 0.916009E+00 0.937107E+00 0.841541E+00
10.571630 0.890364E+00 0.948080E+00 0.820119E+00
10.598840 0.868122E+00 0.946005E+00 0.796475E+00
10.626050 0.847553E+00 0.932547E+00 0.772203E+00
10.653260 0.827064E+00 0.911163E+00 0.748795E+00
10.680470 0.805633E+00 0.885176E+00 0.726988E+00
10.707680 0.782869E+00 0.857389E+00 0.706419E+00
10.734900 0.758933E+00 0.829366E+00 0.686221E+00
10.762110 0.734708E+00 0.801618E+00 0.666299E+00
10.789320 0.711433E+00 0.774368E+00 0.647744E+00
10.816530 0.689965E+00 0.748090E+00 0.631775E+00
10.843740 0.670675E+00 0.723695E+00 0.618526E+00
10.870950 0.653748E+00 0.702444E+00 0.607439E+00
10.898160 0.639272E+00 0.685324E+00 0.598358E+00
10.925380 0.626756E+00 0.672269E+00 0.591583E+00
10.952590 0.614659E+00 0.662189E+00 0.586989E+00
10.979800 0.601396E+00 0.653859E+00 0.583640E+00
11.007010 0.586813E+00 0.646750E+00 0.580652E+00
11.034220 0.571709E+00 0.640797E+00 0.577683E+00
11.061430 0.556859E+00 0.635637E+00 0.574676E+00
11.088640 0.542822E+00 0.630132E+00 0.571884E+00
11.115850 0.529878E+00 0.622722E+00 0.569684E+00
11.143070 0.518053E+00 0.612655E+00 0.567936E+00
11.170280 0.507322E+00 0.600310E+00 0.565810E+00
11.197490 0.497714E+00 0.585958E+00 0.562504E+00
11.224700 0.489376E+00 0.569551E+00 0.558172E+00
11.251910 0.482520E+00 0.551840E+00 0.553922E+00
11.279120 0.477389E+00 0.534795E+00 0.550763E+00
11.306330 0.474401E+00 0.520501E+00 0.549098E+00
11.333550 0.474093E+00 0.509819E+00 0.549179E+00
11.360760 0.476468E+00 0.502519E+00 0.551169E+00
11.387970 0.480400E+00 0.498170E+00 0.554608E+00
11.415180 0.483864E+00 0.496403E+00 0.558253E+00
11.442390 0.484993E+00 0.496625E+00 0.560928E+00
11.469600 0.483124E+00 0.497840E+00 0.562551E+00
11.496810 0.478621E+00 0.498656E+00 0.564048E+00
11.524030 0.472064E+00 0.497927E+00 0.566487E+00
11.551240 0.463989E+00 0.495755E+00 0.569909E+00
11.578450 0.454853E+00 0.493588E+00 0.573046E+00
11.605660 0.444925E+00 0.493155E+00 0.574030E+00
11.632870 0.434301E+00 0.495446E+00 0.571418E+00
11.660080 0.423210E+00 0.500450E+00 0.564982E+00
11.687290 0.412205E+00 0.507450E+00 0.555288E+00
11.714510 0.401944E+00 0.515525E+00 0.543121E+00
11.741720 0.393011E+00 0.523751E+00 0.529880E+00
11.768930 0.385783E+00 0.531355E+00 0.517527E+00
11.796140 0.380140E+00 0.538146E+00 0.507942E+00
11.823350 0.375381E+00 0.544462E+00 0.502456E+00
11.850560 0.370818E+00 0.550374E+00 0.501805E+00
11.877770 0.366508E+00 0.555423E+00 0.506351E+00
11.904990 0.363186E+00 0.559139E+00 0.516123E+00
11.932200 0.361650E+00 0.561605E+00 0.530646E+00
11.959410 0.362347E+00 0.563357E+00 0.548729E+00
11.986620 0.365236E+00 0.564586E+00 0.568375E+00
12.013830 0.369895E+00 0.564950E+00 0.587269E+00
12.041040 0.375835E+00 0.564210E+00 0.603478E+00
12.068250 0.382643E+00 0.562476E+00 0.615806E+00
12.095470 0.389939E+00 0.559888E+00 0.623571E+00
12.122680 0.397504E+00 0.556673E+00 0.626116E+00
12.149890 0.405556E+00 0.553447E+00 0.623180E+00
12.177100 0.414653E+00 0.551297E+00 0.615702E+00
12.204310 0.425345E+00 0.551555E+00 0.605593E+00
12.231520 0.438075E+00 0.555199E+00 0.594401E+00
12.258730 0.453301E+00 0.562193E+00 0.582515E+00
12.285940 0.471303E+00 0.571215E+00 0.569805E+00
12.313160 0.491657E+00 0.580237E+00 0.556625E+00
12.340370 0.513066E+00 0.587999E+00 0.544025E+00
12.367580 0.533955E+00 0.594986E+00 0.533245E+00
12.394790 0.552763E+00 0.602659E+00 0.524929E+00
12.422000 0.567922E+00 0.612219E+00 0.518977E+00
12.449210 0.578433E+00 0.624014E+00 0.515336E+00
12.476420 0.584540E+00 0.637118E+00 0.514245E+00
12.503640 0.587374E+00 0.649522E+00 0.515603E+00
12.530850 0.588087E+00 0.659416E+00 0.518819E+00
12.558060 0.587430E+00 0.666113E+00 0.523359E+00
12.585270 0.585815E+00 0.669873E+00 0.529066E+00
12.612480 0.583698E+00 0.671660E+00 0.536019E+00
12.639690 0.581791E+00 0.672990E+00 0.544235E+00
12.666900 0.580950E+00 0.675401E+00 0.553439E+00
12.694120 0.581968E+00 0.679811E+00 0.562880E+00
12.721330 0.585075E+00 0.686456E+00 0.571255E+00
12.748540 0.589635E+00 0.695375E+00 0.577286E+00
12.775750 0.594885E+00 0.706766E+00 0.580606E+00
12.802960 0.601037E+00 0.720839E+00 0.581975E+00
12.830170 0.609168E+00 0.737455E+00 0.582737E+00
12.857380 0.620244E+00 0.755856E+00 0.583833E+00
12.884600 0.634681E+00 0.774726E+00 0.585073E+00
12.911810 0.652267E+00 0.792701E+00 0.585811E+00
12.939020 0.672192E+00 0.809088E+00 0.586061E+00
12.966230 0.693415E+00 0.824417E+00 0.586275E+00
12.993440 0.715133E+00 0.840025E+00 0.586782E+00
13.020650 0.736498E+00 0.856296E+00 0.587636E+00
13.047860 0.755830E+00 0.872052E+00 0.588663E+00
13.075080 0.770388E+00 0.885774E+00 0.589578E+00
13.102290 0.777595E+00 0.896788E+00 0.590263E+00
13.129500 0.776979E+00 0.905569E+00 0.591036E+00
13.156710 0.770293E+00 0.912799E+00 0.592320E+00
13.183920 0.760080E+00 0.918453E+00 0.594196E+00
13.211130 0.748916E+00 0.922081E+00 0.596439E+00
13.238340 0.739283E+00 0.923457E+00 0.598808E+00
13.265560 0.733033E+00 0.922874E+00 0.601164E+00
13.292770 0.730972E+00 0.920978E+00 0.603338E+00
13.319980 0.733242E+00 0.918457E+00 0.605058E+00
13.347190 0.739870E+00 0.916135E+00 0.606177E+00
13.374400 0.750728E+00 0.915022E+00 0.606981E+00
13.401610 0.765194E+00 0.916121E+00 0.608168E+00
13.428820 0.782219E+00 0.920320E+00 0.610652E+00
13.456030 0.800643E+00 0.928207E+00 0.615080E+00
13.483250 0.819220E+00 0.939643E+00 0.621463E+00
13.510460 0.836637E+00 0.953892E+00 0.629392E+00
13.537670 0.851879E+00 0.970402E+00 0.638406E+00
13.564880 0.864520E+00 0.989179E+00 0.648102E+00
13.592090 0.874781E+00 0.101032E+01 0.658233E+00
13.619300 0.883247E+00 0.103312E+01 0.668702E+00
13.646510 0.890470E+00 0.105553E+01 0.679317E+00
13.673730 0.896909E+00 0.107440E+01 0.689775E+00
13.700940 0.902877E+00 0.108688E+01 0.699786E+00
13.728150 0.907935E+00 0.109267E+01 0.709111E+00
13.755360 0.910666E+00 0.109441E+01 0.717548E+00
13.782570 0.909834E+00 0.109547E+01 0.724836E+00
13.809780 0.905705E+00 0.109822E+01 0.730642E+00
13.836990 0.899764E+00 0.110403E+01 0.734782E+00
13.864210 0.893536E+00 0.111369E+01 0.737312E+00
13.891420 0.888301E+00 0.112739E+01 0.738427E+00
13.918630 0.885043E+00 0.114442E+01 0.738438E+00
13.945840 0.884103E+00 0.116296E+01 0.737798E+00
13.973050 0.885211E+00 0.118051E+01 0.737032E+00
14.000260 0.887913E+00 0.119515E+01 0.736578E+00
14.027470 0.891740E+00 0.120684E+01 0.736744E+00
14.054690 0.895913E+00 0.121712E+01 0.737768E+00
14.081900 0.899320E+00 0.122747E+01 0.739924E+00
14.109110 0.901301E+00 0.123829E+01 0.743663E+00
14.136320 0.902272E+00 0.124876E+01 0.749477E+00
14.163530 0.903316E+00 0.125722E+01 0.757495E+00
14.190740 0.905522E+00 0.126239E+01 0.767438E+00
14.217950 0.909727E+00 0.126419E+01 0.778952E+00
14.245170 0.916316E+00 0.126317E+01 0.791751E+00
14.272380 0.925103E+00 0.126004E+01 0.805586E+00
14.299590 0.935589E+00 0.125576E+01 0.820311E+00
14.326800 0.947107E+00 0.125154E+01 0.835847E+00
14.354010 0.958466E+00 0.124821E+01 0.851970E+00
14.381220 0.967875E+00 0.124553E+01 0.868128E+00
14.408430 0.973956E+00 0.124269E+01 0.883678E+00
14.435650 0.976679E+00 0.123975E+01 0.898090E+00
14.462860 0.976988E+00 0.123761E+01 0.910799E+00
14.490070 0.976101E+00 0.123681E+01 0.921348E+00
14.517280 0.974902E+00 0.123727E+01 0.929599E+00
14.544490 0.973822E+00 0.123900E+01 0.935668E+00
14.571700 0.973320E+00 0.124213E+01 0.939879E+00
14.598910 0.974015E+00 0.124636E+01 0.943062E+00
14.626120 0.976174E+00 0.125082E+01 0.946512E+00
14.653340 0.979123E+00 0.125457E+01 0.951055E+00
14.680550 0.981449E+00 0.125699E+01 0.956389E+00
14.707760 0.982280E+00 0.125787E+01 0.961789E+00
14.734970 0.982004E+00 0.125749E+01 0.966915E+00
14.762180 0.981611E+00 0.125639E+01 0.971716E+00
14.789390 0.982057E+00 0.125443E+01 0.975899E+00
14.816600 0.983800E+00 0.125030E+01 0.978867E+00
14.843820 0.986826E+00 0.124271E+01 0.980435E+00
14.871030 0.991316E+00 0.123195E+01 0.981471E+00
14.898240 0.997664E+00 0.121962E+01 0.983561E+00
14.925450 0.100562E+01 0.120741E+01 0.988035E+00
14.952660 0.101409E+01 0.119632E+01 0.995559E+00
14.979870 0.102197E+01 0.118664E+01 0.100649E+01
15.007080 0.102889E+01 0.117893E+01 0.102120E+01
15.034300 0.103475E+01 0.117431E+01 0.103992E+01
15.061510 0.103910E+01 0.117346E+01 0.106199E+01
15.088720 0.104176E+01 0.117582E+01 0.108603E+01
15.115930 0.104357E+01 0.117986E+01 0.111037E+01
15.143140 0.104626E+01 0.118361E+01 0.113320E+01
15.170350 0.105157E+01 0.118564E+01 0.115292E+01
15.197560 0.106063E+01 0.118598E+01 0.116881E+01
15.224780 0.107341E+01 0.118604E+01 0.118087E+01
15.251990 0.108860E+01 0.118739E+01 0.118974E+01
15.279200 0.110413E+01 0.119079E+01 0.119700E+01
15.306410 0.111791E+01 0.119575E+01 0.120441E+01
15.333620 0.112892E+01 0.120119E+01 0.121280E+01
15.360830 0.113766E+01 0.120607E+01 0.122199E+01
15.388040 0.114527E+01 0.120995E+01 0.123126E+01
15.415260 0.115248E+01 0.121341E+01 0.123966E+01
15.442470 0.115976E+01 0.121761E+01 0.124638E+01
15.469680 0.116773E+01 0.122321E+01 0.125149E+01
15.496890 0.117658E+01 0.122973E+01 0.125603E+01
15.524100 0.118530E+01 0.123607E+01 0.126152E+01
15.551310 0.119229E+01 0.124143E+01 0.126941E+01
15.578520 0.119740E+01 0.124555E+01 0.128040E+01
15.605740 0.120238E+01 0.124837E+01 0.129422E+01
15.632950 0.120911E+01 0.124961E+01 0.130974E+01
15.660160 0.121801E+01 0.124866E+01 0.132572E+01
15.687370 0.122852E+01 0.124506E+01 0.134154E+01
15.714580 0.124015E+01 0.123886E+01 0.135735E+01
15.741790 0.125269E+01 0.122994E+01 0.137347E+01
15.769000 0.126586E+01 0.121731E+01 0.138997E+01
15.796210 0.127909E+01 0.120042E+01 0.140706E+01
15.823430 0.129186E+01 0.118022E+01 0.142503E+01
15.850640 0.130373E+01 0.115895E+01 0.144400E+01
15.877850 0.131421E+01 0.113942E+01 0.146420E+01
15.905060 0.132291E+01 0.112372E+01 0.148593E+01
15.932270 0.132961E+01 0.111236E+01 0.150873E+01
15.959480 0.133426E+01 0.110419E+01 0.153138E+01
15.986690 0.133707E+01 0.109743E+01 0.155275E+01
16.013910 0.133828E+01 0.109120E+01 0.157265E+01
16.041120 0.133829E+01 0.108606E+01 0.159191E+01
16.068330 0.133777E+01 0.108299E+01 0.161240E+01
16.095540 0.133734E+01 0.108242E+01 0.163634E+01
16.122750 0.133727E+01 0.108413E+01 0.166470E+01
16.149960 0.133729E+01 0.108795E+01 0.169611E+01
16.177170 0.133689E+01 0.109415E+01 0.172713E+01
16.204390 0.133590E+01 0.110318E+01 0.175396E+01
16.231600 0.133468E+01 0.111540E+01 0.177422E+01
16.258810 0.133389E+01 0.113070E+01 0.178710E+01
16.286020 0.133410E+01 0.114766E+01 0.179263E+01
16.313230 0.133561E+01 0.116362E+01 0.179187E+01
16.340440 0.133851E+01 0.117611E+01 0.178679E+01
16.367650 0.134253E+01 0.118452E+01 0.177937E+01
16.394870 0.134745E+01 0.118995E+01 0.177101E+01
16.422080 0.135361E+01 0.119439E+01 0.176242E+01
16.449290 0.136135E+01 0.119981E+01 0.175351E+01
16.476500 0.137015E+01 0.120697E+01 0.174367E+01
16.503710 0.137897E+01 0.121549E+01 0.173277E+01
16.530920 0.138690E+01 0.122494E+01 0.172163E+01
16.558130 0.139278E+01 0.123541E+01 0.171146E+01
16.585350 0.139565E+01 0.124743E+01 0.170342E+01
16.612560 0.139603E+01 0.126174E+01 0.169809E+01
16.639770 0.139548E+01 0.127905E+01 0.169468E+01
16.666980 0.139521E+01 0.129945E+01 0.169134E+01
16.694190 0.139633E+01 0.132245E+01 0.168680E+01
16.721400 0.140077E+01 0.134683E+01 0.168111E+01
16.748610 0.141054E+01 0.137039E+01 0.167489E+01
16.775830 0.142622E+01 0.139084E+01 0.166875E+01
16.803040 0.144625E+01 0.140682E+01 0.166317E+01
16.830250 0.146791E+01 0.141735E+01 0.165826E+01
16.857460 0.148768E+01 0.142212E+01 0.165336E+01
16.884670 0.150103E+01 0.142309E+01 0.164730E+01
16.911880 0.150489E+01 0.142320E+01 0.163950E+01
16.939090 0.150047E+01 0.142487E+01 0.163048E+01
16.966300 0.149108E+01 0.143016E+01 0.162128E+01
16.993520 0.147965E+01 0.143981E+01 0.161296E+01
17.020730 0.146833E+01 0.145205E+01 0.160616E+01
17.047940 0.145806E+01 0.146341E+01 0.160068E+01
17.075150 0.144861E+01 0.147054E+01 0.159566E+01
17.102360 0.143919E+01 0.147178E+01 0.158984E+01
17.129570 0.142903E+01 0.146753E+01 0.158235E+01
17.156780 0.141766E+01 0.145918E+01 0.157318E+01
17.184000 0.140524E+01 0.144787E+01 0.156278E+01
17.211210 0.139260E+01 0.143452E+01 0.155157E+01
17.238420 0.138116E+01 0.142047E+01 0.154018E+01
17.265630 0.137214E+01 0.140708E+01 0.152944E+01
17.292840 0.136582E+01 0.139518E+01 0.151964E+01
17.320050 0.136173E+01 0.138518E+01 0.151045E+01
17.347260 0.135922E+01 0.137750E+01 0.150177E+01
17.374480 0.135779E+01 0.137221E+01 0.149434E+01
17.401690 0.135712E+01 0.136910E+01 0.148920E+01
17.428900 0.135716E+01 0.136840E+01 0.148693E+01
17.456110 0.135798E+01 0.137058E+01 0.148734E+01
17.483320 0.135947E+01 0.137568E+01 0.148978E+01
17.510530 0.136126E+01 0.138320E+01 0.149381E+01
17.537740 0.136271E+01 0.139207E+01 0.149965E+01
17.564960 0.136344E+01 0.140095E+01 0.150799E+01
17.592170 0.136392E+01 0.140856E+01 0.151938E+01
17.619380 0.136546E+01 0.141411E+01 0.153366E+01
17.646590 0.136953E+01 0.141748E+01 0.155000E+01
17.673800 0.137671E+01 0.141928E+01 0.156722E+01
17.701010 0.138635E+01 0.142062E+01 0.158375E+01
17.728220 0.139657E+01 0.142245E+01 0.159773E+01
17.755440 0.140509E+01 0.142507E+01 0.160785E+01
17.782650 0.141094E+01 0.142817E+01 0.161343E+01
17.809860 0.141514E+01 0.143092E+01 0.161373E+01
17.837070 0.141956E+01 0.143222E+01 0.160841E+01
17.864280 0.142556E+01 0.143140E+01 0.159814E+01
17.891490 0.143336E+01 0.142867E+01 0.158388E+01
17.918700 0.144276E+01 0.142526E+01 0.156675E+01
17.945920 0.145373E+01 0.142251E+01 0.154837E+01
17.973130 0.146555E+01 0.142111E+01 0.153033E+01
18.000340 0.147663E+01 0.142152E+01 0.151334E+01
18.027550 0.148558E+01 0.142443E+01 0.149730E+01
18.054760 0.149233E+01 0.143025E+01 0.148190E+01
18.081970 0.149783E+01 0.143808E+01 0.146700E+01
18.109180 0.150285E+01 0.144550E+01 0.145305E+01
18.136390 0.150767E+01 0.145002E+01 0.144152E+01
18.163610 0.151272E+01 0.145094E+01 0.143424E+01
18.190820 0.151838E+01 0.144938E+01 0.143198E+01
18.218030 0.152481E+01 0.144732E+01 0.143423E+01
18.245240 0.153228E+01 0.144642E+01 0.144026E+01
18.272450 0.154101E+01 0.144676E+01 0.144930E+01
18.299660 0.155108E+01 0.144595E+01 0.146007E+01
18.326870 0.156262E+01 0.144027E+01 0.147089E+01
18.354090 0.157581E+01 0.142782E+01 0.148042E+01
18.381300 0.158986E+01 0.141082E+01 0.148823E+01
18.408510 0.160289E+01 0.139383E+01 0.149457E+01
18.435720 0.161314E+01 0.138003E+01 0.149965E+01
18.462930 0.162051E+01 0.136975E+01 0.150315E+01
18.490140 0.162653E+01 0.136184E+01 0.150426E+01
18.517350 0.163270E+01 0.135521E+01 0.150234E+01
18.544570 0.163937E+01 0.134908E+01 0.149723E+01
18.571780 0.164560E+01 0.134272E+01 0.148967E+01
18.598990 0.164923E+01 0.133570E+01 0.148105E+01
18.626200 0.164778E+01 0.132829E+01 0.147272E+01
18.653410 0.164066E+01 0.132095E+01 0.146500E+01
18.680620 0.163039E+01 0.131419E+01 0.145720E+01
18.707830 0.162083E+01 0.130894E+01 0.144830E+01
18.735050 0.161451E+01 0.130648E+01 0.143780E+01
18.762260 0.161185E+01 0.130775E+01 0.142565E+01
18.789470 0.161221E+01 0.131274E+01 0.141212E+01
18.816680 0.161453E+01 0.132041E+01 0.139792E+01
18.843890 0.161734E+01 0.132928E+01 0.138402E+01
18.871100 0.161912E+01 0.133827E+01 0.137120E+01
18.898310 0.161840E+01 0.134684E+01 0.135972E+01
18.925530 0.161400E+01 0.135458E+01 0.134954E+01
18.952740 0.160558E+01 0.136105E+01 0.134053E+01
18.979950 0.159361E+01 0.136636E+01 0.133203E+01
19.007160 0.157932E+01 0.137140E+01 0.132296E+01
19.034370 0.156473E+01 0.137726E+01 0.131297E+01
19.061580 0.155156E+01 0.138464E+01 0.130309E+01
19.088790 0.154060E+01 0.139364E+01 0.129455E+01
19.116010 0.153189E+01 0.140353E+01 0.128734E+01
19.143220 0.152500E+01 0.141296E+01 0.128014E+01
19.170430 0.151898E+01 0.142091E+01 0.127137E+01
19.197640 0.151252E+01 0.142735E+01 0.126042E+01
19.224850 0.150448E+01 0.143283E+01 0.124801E+01
19.252060 0.149467E+01 0.143765E+01 0.123579E+01
19.279270 0.148398E+01 0.144203E+01 0.122520E+01
19.306480 0.147342E+01 0.144646E+01 0.121687E+01
19.333700 0.146333E+01 0.145130E+01 0.121097E+01
19.360910 0.145346E+01 0.145619E+01 0.120800E+01
19.388120 0.144344E+01 0.145996E+01 0.120841E+01
19.415330 0.143318E+01 0.146156E+01 0.121176E+01
19.442540 0.142298E+01 0.146123E+01 0.121673E+01
19.469750 0.141327E+01 0.146070E+01 0.122200E+01
19.496960 0.140450E+01 0.146151E+01 0.122668E+01
19.524180 0.139690E+01 0.146358E+01 0.122963E+01
19.551390 0.139044E+01 0.146548E+01 0.122947E+01
19.578600 0.138524E+01 0.146593E+01 0.122597E+01
19.605810 0.138171E+01 0.146429E+01 0.122040E+01
19.633020 0.138013E+01 0.146022E+01 0.121463E+01
19.660230 0.138067E+01 0.145396E+01 0.121020E+01
19.687440 0.138306E+01 0.144641E+01 0.120784E+01
19.714660 0.138620E+01 0.143849E+01 0.120741E+01
19.741870 0.138827E+01 0.143010E+01 0.120827E+01
19.769080 0.138806E+01 0.142021E+01 0.120984E+01
19.796290 0.138567E+01 0.140845E+01 0.121181E+01
19.823500 0.138185E+01 0.139587E+01 0.121389E+01
19.850710 0.137747E+01 0.138401E+01 0.121570E+01
19.877920 0.137335E+01 0.137379E+01 0.121692E+01
19.905140 0.137034E+01 0.136532E+01 0.121760E+01
19.932350 0.136929E+01 0.135838E+01 0.121801E+01
19.959560 0.137032E+01 0.135239E+01 0.121838E+01
19.986770 0.137239E+01 0.134621E+01 0.121867E+01
20.013980 0.137383E+01 0.133840E+01 0.121890E+01
20.041190 0.137363E+01 0.132791E+01 0.121941E+01
20.068400 0.137238E+01 0.131440E+01 0.122069E+01
20.095620 0.137190E+01 0.129826E+01 0.122325E+01
20.122830 0.137384E+01 0.128070E+01 0.122742E+01
20.150040 0.137814E+01 0.126359E+01 0.123292E+01
20.177250 0.138339E+01 0.124872E+01 0.123944E+01
20.204460 0.138844E+01 0.123709E+01 0.124689E+01
20.231670 0.139291E+01 0.122871E+01 0.125509E+01
20.258880 0.139666E+01 0.122327E+01 0.126358E+01
20.286100 0.139945E+01 0.122056E+01 0.127170E+01
20.313310 0.140143E+01 0.122027E+01 0.127882E+01
20.340520 0.140348E+01 0.122160E+01 0.128498E+01
20.367730 0.140643E+01 0.122333E+01 0.129039E+01
20.394940 0.141022E+01 0.122443E+01 0.129496E+01
20.422150 0.141430E+01 0.122444E+01 0.129851E+01
20.449360 0.141809E+01 0.122330E+01 0.130098E+01
20.476570 0.142083E+01 0.122114E+01 0.130247E+01
20.503790 0.142165E+01 0.121789E+01 0.130336E+01
20.531000 0.141996E+01 0.121329E+01 0.130440E+01
20.558210 0.141585E+01 0.120742E+01 0.130656E+01
20.585420 0.141017E+01 0.120133E+01 0.131034E+01
20.612630 0.140413E+01 0.119681E+01 0.131505E+01
20.639840 0.139858E+01 0.119551E+01 0.131918E+01
20.667050 0.139407E+01 0.119770E+01 0.132172E+01
20.694270 0.139131E+01 0.120179E+01 0.132281E+01
20.721480 0.139054E+01 0.120549E+01 0.132328E+01
20.748690 0.139058E+01 0.120755E+01 0.132418E+01
20.775900 0.138952E+01 0.120815E+01 0.132644E+01
20.803110 0.138668E+01 0.120790E+01 0.133032E+01
20.830320 0.138318E+01 0.120754E+01 0.133519E+01
20.857530 0.138041E+01 0.120774E+01 0.133985E+01
20.884750 0.137845E+01 0.120888E+01 0.134310E+01
20.911960 0.137644E+01 0.121086E+01 0.134450E+01
20.939170 0.137396E+01 0.121335E+01 0.134424E+01
20.966380 0.137159E+01 0.121633E+01 0.134256E+01
20.993590 0.137040E+01 0.122017E+01 0.133981E+01
21.020800 0.137075E+01 0.122512E+01 0.133689E+01
21.048010 0.137153E+01 0.123080E+01 0.133465E+01
21.075230 0.137062E+01 0.123658E+01 0.133310E+01
21.102440 0.136626E+01 0.124189E+01 0.133153E+01
21.129650 0.135813E+01 0.124636E+01 0.132937E+01
21.156860 0.134760E+01 0.124996E+01 0.132680E+01
21.184070 0.133663E+01 0.125258E+01 0.132440E+01
21.211280 0.132627E+01 0.125387E+01 0.132270E+01
21.238490 0.131677E+01 0.125372E+01 0.132220E+01
21.265710 0.130851E+01 0.125266E+01 0.132329E+01
21.292920 0.130181E+01 0.125207E+01 0.132582E+01
21.320130 0.129668E+01 0.125339E+01 0.132911E+01
21.347340 0.129306E+01 0.125701E+01 0.133251E+01
21.374550 0.129094E+01 0.126227E+01 0.133551E+01
21.401760 0.129028E+01 0.126844E+01 0.133765E+01
21.428970 0.129100E+01 0.127536E+01 0.133886E+01
21.456190 0.129287E+01 0.128279E+01 0.133968E+01
21.483400 0.129514E+01 0.128972E+01 0.134055E+01
21.510610 0.129666E+01 0.129507E+01 0.134126E+01
21.537820 0.129682E+01 0.129897E+01 0.134154E+01
21.565030 0.129619E+01 0.130265E+01 0.134180E+01
21.592240 0.129624E+01 0.130705E+01 0.134287E+01
21.619450 0.129853E+01 0.131205E+01 0.134559E+01
21.646660 0.130384E+01 0.131668E+01 0.135044E+01
21.673880 0.131160E+01 0.131996E+01 0.135699E+01
21.701090 0.132036E+01 0.132143E+01 0.136406E+01
21.728300 0.132907E+01 0.132095E+01 0.137067E+01
21.755510 0.133752E+01 0.131820E+01 0.137648E+01
21.782720 0.134564E+01 0.131290E+01 0.138142E+01
21.809930 0.135306E+01 0.130532E+01 0.138513E+01
21.837140 0.135945E+01 0.129656E+01 0.138681E+01
21.864360 0.136477E+01 0.128804E+01 0.138604E+01
21.891570 0.136934E+01 0.128106E+01 0.138335E+01
21.918780 0.137353E+01 0.127634E+01 0.137992E+01
21.945990 0.137749E+01 0.127386E+01 0.137679E+01
21.973200 0.138135E+01 0.127313E+01 0.137440E+01
22.000410 0.138557E+01 0.127335E+01 0.137224E+01
22.027620 0.139076E+01 0.127350E+01 0.136919E+01
22.054840 0.139726E+01 0.127261E+01 0.136448E+01
22.082050 0.140436E+01 0.127025E+01 0.135815E+01
22.109260 0.141021E+01 0.126681E+01 0.135047E+01
22.136470 0.141280E+01 0.126339E+01 0.134168E+01
22.163680 0.141105E+01 0.126138E+01 0.133186E+01
22.190890 0.140554E+01 0.126174E+01 0.132097E+01
22.218100 0.139856E+01 0.126470E+01 0.130913E+01
22.245320 0.139314E+01 0.127001E+01 0.129685E+01
22.272530 0.139120E+01 0.127727E+01 0.128461E+01
22.299740 0.139250E+01 0.128597E+01 0.127212E+01
22.326950 0.139553E+01 0.129530E+01 0.125825E+01
22.354160 0.139952E+01 0.130450E+01 0.124237E+01
22.381370 0.140523E+01 0.131328E+01 0.122491E+01
22.408580 0.141351E+01 0.132154E+01 0.120704E+01
22.435800 0.142393E+01 0.132973E+01 0.118998E+01
22.463010 0.143514E+01 0.133905E+01 0.117469E+01
22.490220 0.144601E+01 0.135049E+01 0.116173E+01
22.517430 0.145593E+01 0.136302E+01 0.115127E+01
22.544640 0.146455E+01 0.137325E+01 0.114294E+01
22.571850 0.147146E+01 0.137774E+01 0.113584E+01
22.599060 0.147622E+01 0.137616E+01 0.112872E+01
22.626280 0.147822E+01 0.137144E+01 0.112036E+01
22.653490 0.147642E+01 0.136707E+01 0.111041E+01
22.680700 0.147020E+01 0.136496E+01 0.109948E+01
22.707910 0.146022E+01 0.136498E+01 0.108829E+01
22.735120 0.144797E+01 0.136599E+01 0.107714E+01
22.762330 0.143490E+01 0.136741E+01 0.106598E+01
22.789540 0.142204E+01 0.136951E+01 0.105486E+01
22.816750 0.140995E+01 0.137211E+01 0.104418E+01
22.843970 0.139832E+01 0.137389E+01 0.103431E+01
22.871180 0.138649E+01 0.137298E+01 0.102549E+01
22.898390 0.137430E+01 0.136828E+01 0.101803E+01
22.925600 0.136216E+01 0.136035E+01 0.101231E+01
22.952810 0.135040E+01 0.135093E+01 0.100862E+01
22.980020 0.133896E+01 0.134199E+01 0.100694E+01
23.007230 0.132703E+01 0.133473E+01 0.100677E+01
23.034450 0.131321E+01 0.132947E+01 0.100736E+01
23.061660 0.129670E+01 0.132587E+01 0.100822E+01
23.088870 0.127800E+01 0.132327E+01 0.100926E+01
23.116080 0.125875E+01 0.132083E+01 0.101063E+01
23.143290 0.124087E+01 0.131774E+01 0.101242E+01
23.170500 0.122554E+01 0.131363E+01 0.101444E+01
23.197710 0.121267E+01 0.130848E+01 0.101616E+01
23.224930 0.120153E+01 0.130187E+01 0.101715E+01
23.252140 0.119156E+01 0.129300E+01 0.101742E+01
23.279350 0.118247E+01 0.128172E+01 0.101713E+01
23.306560 0.117415E+01 0.126960E+01 0.101646E+01
23.333770 0.116636E+01 0.125913E+01 0.101576E+01
23.360980 0.115854E+01 0.125141E+01 0.101532E+01
23.388190 0.115015E+01 0.124557E+01 0.101539E+01
23.415410 0.114105E+01 0.124063E+01 0.101652E+01
23.442620 0.113147E+01 0.123669E+01 0.101931E+01
23.469830 0.112154E+01 0.123440E+01 0.102371E+01
23.497040 0.111141E+01 0.123389E+01 0.102898E+01
23.524250 0.110171E+01 0.123417E+01 0.103406E+01
23.551460 0.109369E+01 0.123391E+01 0.103813E+01
23.578670 0.108871E+01 0.123236E+01 0.104108E+01
23.605890 0.108715E+01 0.122928E+01 0.104357E+01
23.633100 0.108809E+01 0.122458E+01 0.104676E+01
23.660310 0.108982E+01 0.121853E+01 0.105152E+01
23.687520 0.109055E+01 0.121194E+01 0.105774E+01
23.714730 0.108927E+01 0.120555E+01 0.106445E+01
23.741940 0.108613E+01 0.119965E+01 0.107074E+01
23.769150 0.108216E+01 0.119441E+01 0.107630E+01
23.796370 0.107831E+01 0.119020E+01 0.108115E+01
23.823580 0.107491E+01 0.118742E+01 0.108558E+01
23.850790 0.107191E+01 0.118624E+01 0.108976E+01
23.878000 0.106917E+01 0.118645E+01 0.109381E+01
23.905210 0.106690E+01 0.118736E+01 0.109814E+01
23.932420 0.106565E+01 0.118799E+01 0.110328E+01
23.959630 0.106583E+01 0.118752E+01 0.110935E+01
23.986840 0.106713E+01 0.118556E+01 0.111589E+01
24.014060 0.106850E+01 0.118248E+01 0.112225E+01
24.041270 0.106877E+01 0.117925E+01 0.112757E+01
24.068480 0.106763E+01 0.117670E+01 0.113100E+01
24.095690 0.106622E+01 0.117491E+01 0.113229E+01
24.122900 0.106624E+01 0.117354E+01 0.113211E+01
24.150110 0.106854E+01 0.117259E+01 0.113126E+01
24.177320 0.107285E+01 0.117254E+01 0.112969E+01
24.204540 0.107830E+01 0.117354E+01 0.112648E+01
24.231750 0.108407E+01 0.117493E+01 0.112080E+01
24.258960 0.108995E+01 0.117555E+01 0.111319E+01
24.286170 0.109620E+01 0.117421E+01 0.110548E+01
24.313380 0.110295E+01 0.117021E+01 0.109923E+01
24.340590 0.110970E+01 0.116384E+01 0.109473E+01
24.367800 0.111561E+01 0.115675E+01 0.109109E+01
24.395020 0.112005E+01 0.115112E+01 0.108660E+01
24.422230 0.112224E+01 0.114852E+01 0.107960E+01
24.449440 0.112137E+01 0.114930E+01 0.106968E+01
24.476650 0.111769E+01 0.115234E+01 0.105820E+01
24.503860 0.111225E+01 0.115522E+01 0.104757E+01
24.531070 0.110549E+01 0.115535E+01 0.103986E+01
24.558280 0.109701E+01 0.115147E+01 0.103594E+01
24.585500 0.108673E+01 0.114407E+01 0.103569E+01
24.612710 0.107530E+01 0.113455E+01 0.103827E+01
24.639920 0.106353E+01 0.112410E+01 0.104224E+01
24.667130 0.105225E+01 0.111333E+01 0.104628E+01
24.694340 0.104256E+01 0.110222E+01 0.104982E+01
24.721550 0.103543E+01 0.109061E+01 0.105302E+01
24.748760 0.103138E+01 0.107903E+01 0.105578E+01
24.775980 0.103054E+01 0.106868E+01 0.105791E+01
24.803190 0.103243E+01 0.106089E+01 0.105937E+01
24.830400 0.103581E+01 0.105643E+01 0.106001E+01
24.857610 0.103917E+01 0.105526E+01 0.105921E+01
24.884820 0.104136E+01 0.105659E+01 0.105631E+01
24.912030 0.104200E+01 0.105909E+01 0.105113E+01
24.939240 0.104149E+01 0.106169E+01 0.104417E+01
24.966460 0.104056E+01 0.106450E+01 0.103624E+01
24.993670 0.103993E+01 0.106810E+01 0.102821E+01
25.020880 0.103996E+01 0.107236E+01 0.102070E+01
25.048090 0.104024E+01 0.107615E+01 0.101387E+01
25.075300 0.103951E+01 0.107799E+01 0.100758E+01
25.102510 0.103665E+01 0.107724E+01 0.100177E+01
25.129720 0.103146E+01 0.107475E+01 0.996496E+00
25.156930 0.102436E+01 0.107213E+01 0.991645E+00
25.184150 0.101577E+01 0.107009E+01 0.986694E+00
25.211360 0.100630E+01 0.106814E+01 0.980903E+00
25.238570 0.996967E+00 0.106568E+01 0.973834E+00
25.265780 0.988642E+00 0.106277E+01 0.965827E+00
25.292990 0.981480E+00 0.105965E+01 0.957913E+00
25.320200 0.975018E+00 0.105618E+01 0.951144E+00
25.347410 0.968965E+00 0.105221E+01 0.945765E+00
25.374630 0.963586E+00 0.104800E+01 0.940900E+00
25.401840 0.959084E+00 0.104371E+01 0.935204E+00
25.429050 0.954897E+00 0.103920E+01 0.927913E+00
25.456260 0.950033E+00 0.103465E+01 0.919517E+00
25.483470 0.943998E+00 0.103061E+01 0.911277E+00
25.510680 0.937062E+00 0.102742E+01 0.904220E+00
25.537890 0.929797E+00 0.102542E+01 0.898734E+00
25.565110 0.922751E+00 0.102556E+01 0.894583E+00
25.592320 0.916600E+00 0.102842E+01 0.891253E+00
25.619530 0.912331E+00 0.103310E+01 0.888470E+00
25.646740 0.910618E+00 0.103717E+01 0.886270E+00
25.673950 0.911312E+00 0.103830E+01 0.884669E+00
25.701160 0.913656E+00 0.103624E+01 0.883734E+00
25.728370 0.916516E+00 0.103206E+01 0.883732E+00
25.755590 0.918791E+00 0.102641E+01 0.884884E+00
25.782800 0.919842E+00 0.101947E+01 0.887138E+00
25.810010 0.919896E+00 0.101163E+01 0.889983E+00
25.837220 0.919987E+00 0.100345E+01 0.892553E+00
25.864430 0.920977E+00 0.995485E+00 0.894322E+00
25.891640 0.922801E+00 0.988414E+00 0.895417E+00
25.918850 0.925151E+00 0.982649E+00 0.896249E+00
25.946070 0.928062E+00 0.978059E+00 0.897047E+00
25.973280 0.931303E+00 0.974231E+00 0.897508E+00
