#                                                                                
# Lorentzian broadening with gamma= 0.100000  [eV]
# Im(epsilon) shifted by   0.0000   [eV]
# No intraband contributions added
#
# Energy Im_eps_xx Im_eps_yy Im_eps_zz
0.013610 0.407221E-01 0.320844E-01 0.322098E-01
0.040820 0.411561E-01 0.324240E-01 0.325497E-01
0.068030 0.415979E-01 0.327696E-01 0.328956E-01
0.095240 0.420475E-01 0.331213E-01 0.332477E-01
0.122450 0.425054E-01 0.334794E-01 0.336060E-01
0.149660 0.429715E-01 0.338440E-01 0.339708E-01
0.176870 0.434463E-01 0.342153E-01 0.343423E-01
0.204090 0.439300E-01 0.345935E-01 0.347207E-01
0.231300 0.444225E-01 0.349786E-01 0.351059E-01
0.258510 0.449243E-01 0.353709E-01 0.354983E-01
0.285720 0.454357E-01 0.357706E-01 0.358980E-01
0.312930 0.459568E-01 0.361779E-01 0.363054E-01
0.340140 0.464879E-01 0.365930E-01 0.367204E-01
0.367350 0.470294E-01 0.370161E-01 0.371435E-01
0.394570 0.475817E-01 0.374477E-01 0.375749E-01
0.421780 0.481447E-01 0.378875E-01 0.380146E-01
0.448990 0.487190E-01 0.383360E-01 0.384629E-01
0.476200 0.493048E-01 0.387935E-01 0.389201E-01
0.503410 0.499024E-01 0.392602E-01 0.393865E-01
0.530620 0.505124E-01 0.397364E-01 0.398623E-01
0.557830 0.511349E-01 0.402224E-01 0.403478E-01
0.585040 0.517704E-01 0.407184E-01 0.408432E-01
0.612260 0.524195E-01 0.412249E-01 0.413492E-01
0.639470 0.530822E-01 0.417420E-01 0.418655E-01
0.666680 0.537590E-01 0.422700E-01 0.423927E-01
0.693890 0.544505E-01 0.428093E-01 0.429312E-01
0.721100 0.551571E-01 0.433603E-01 0.434812E-01
0.748310 0.558793E-01 0.439233E-01 0.440431E-01
0.775520 0.566176E-01 0.444988E-01 0.446174E-01
0.802740 0.573728E-01 0.450873E-01 0.452046E-01
0.829950 0.581448E-01 0.456888E-01 0.458047E-01
0.857160 0.589346E-01 0.463040E-01 0.464183E-01
0.884370 0.597427E-01 0.469333E-01 0.470458E-01
0.911580 0.605697E-01 0.475772E-01 0.476878E-01
0.938790 0.614163E-01 0.482361E-01 0.483447E-01
0.966000 0.622831E-01 0.489107E-01 0.490170E-01
0.993220 0.631713E-01 0.496016E-01 0.497055E-01
1.020430 0.640809E-01 0.503090E-01 0.504103E-01
1.047640 0.650129E-01 0.510336E-01 0.511321E-01
1.074850 0.659683E-01 0.517761E-01 0.518715E-01
1.102060 0.669478E-01 0.525372E-01 0.526292E-01
1.129270 0.679524E-01 0.533175E-01 0.534059E-01
1.156480 0.689830E-01 0.541177E-01 0.542023E-01
1.183700 0.700410E-01 0.549389E-01 0.550192E-01
1.210910 0.711267E-01 0.557812E-01 0.558571E-01
1.238120 0.722415E-01 0.566459E-01 0.567168E-01
1.265330 0.733866E-01 0.575336E-01 0.575993E-01
1.292540 0.745632E-01 0.584454E-01 0.585054E-01
1.319750 0.757727E-01 0.593823E-01 0.594361E-01
1.346960 0.770163E-01 0.603452E-01 0.603923E-01
1.374180 0.782960E-01 0.613355E-01 0.613755E-01
1.401390 0.796123E-01 0.623537E-01 0.623860E-01
1.428600 0.809674E-01 0.634013E-01 0.634252E-01
1.455810 0.823629E-01 0.644796E-01 0.644945E-01
1.483020 0.838006E-01 0.655900E-01 0.655951E-01
1.510230 0.852825E-01 0.667337E-01 0.667283E-01
1.537440 0.868105E-01 0.679124E-01 0.678956E-01
1.564660 0.883874E-01 0.691280E-01 0.690990E-01
1.591870 0.900144E-01 0.703815E-01 0.703391E-01
1.619080 0.916945E-01 0.716749E-01 0.716180E-01
1.646290 0.934303E-01 0.730103E-01 0.729378E-01
1.673500 0.952245E-01 0.743897E-01 0.743001E-01
1.700710 0.970803E-01 0.758153E-01 0.757072E-01
1.727920 0.990007E-01 0.772894E-01 0.771612E-01
1.755130 0.100989E+00 0.788145E-01 0.786644E-01
1.782350 0.103050E+00 0.803939E-01 0.802199E-01
1.809560 0.105187E+00 0.820293E-01 0.818293E-01
1.836770 0.107403E+00 0.837244E-01 0.834959E-01
1.863980 0.109704E+00 0.854826E-01 0.852229E-01
1.891190 0.112095E+00 0.873075E-01 0.870136E-01
1.918400 0.114581E+00 0.892030E-01 0.888715E-01
1.945610 0.117168E+00 0.911733E-01 0.908004E-01
1.972830 0.119863E+00 0.932238E-01 0.928053E-01
2.000040 0.122672E+00 0.953581E-01 0.948892E-01
2.027250 0.125603E+00 0.975824E-01 0.970577E-01
2.054460 0.128665E+00 0.999028E-01 0.993160E-01
2.081670 0.131867E+00 0.102326E+00 0.101670E+00
2.108880 0.135219E+00 0.104859E+00 0.104126E+00
2.136090 0.138733E+00 0.107510E+00 0.106691E+00
2.163310 0.142422E+00 0.110289E+00 0.109373E+00
2.190520 0.146298E+00 0.113205E+00 0.112179E+00
2.217730 0.150379E+00 0.116270E+00 0.115119E+00
2.244940 0.154682E+00 0.119495E+00 0.118203E+00
2.272150 0.159228E+00 0.122898E+00 0.121444E+00
2.299360 0.164040E+00 0.126493E+00 0.124853E+00
2.326570 0.169145E+00 0.130301E+00 0.128445E+00
2.353790 0.174576E+00 0.134345E+00 0.132239E+00
2.381000 0.180365E+00 0.138651E+00 0.136250E+00
2.408210 0.186558E+00 0.143251E+00 0.140502E+00
2.435420 0.193206E+00 0.148186E+00 0.145020E+00
2.462630 0.200370E+00 0.153503E+00 0.149836E+00
2.489840 0.208129E+00 0.159266E+00 0.154985E+00
2.517050 0.216577E+00 0.165552E+00 0.160511E+00
2.544270 0.225838E+00 0.172467E+00 0.166473E+00
2.571480 0.236061E+00 0.180136E+00 0.172935E+00
2.598690 0.247442E+00 0.188727E+00 0.179982E+00
2.625900 0.260226E+00 0.198424E+00 0.187717E+00
2.653110 0.274706E+00 0.209417E+00 0.196252E+00
2.680320 0.291227E+00 0.221868E+00 0.205705E+00
2.707530 0.310184E+00 0.235905E+00 0.216187E+00
2.734750 0.332040E+00 0.251648E+00 0.227809E+00
2.761960 0.357290E+00 0.269215E+00 0.240670E+00
2.789170 0.386496E+00 0.288760E+00 0.254893E+00
2.816380 0.420272E+00 0.310460E+00 0.270622E+00
2.843590 0.459330E+00 0.334545E+00 0.288033E+00
2.870800 0.504506E+00 0.361291E+00 0.307334E+00
2.898010 0.556638E+00 0.390948E+00 0.328763E+00
2.925220 0.616237E+00 0.423534E+00 0.352580E+00
2.952440 0.683004E+00 0.458542E+00 0.379089E+00
2.979650 0.755134E+00 0.494653E+00 0.408601E+00
3.006860 0.829111E+00 0.530055E+00 0.441513E+00
3.034070 0.900154E+00 0.563303E+00 0.478303E+00
3.061280 0.963971E+00 0.594375E+00 0.519543E+00
3.088490 0.101866E+01 0.624827E+00 0.565832E+00
3.115700 0.106552E+01 0.656966E+00 0.617653E+00
3.142920 0.110853E+01 0.692997E+00 0.675227E+00
3.170130 0.115316E+01 0.734702E+00 0.738494E+00
3.197340 0.120529E+01 0.783570E+00 0.807678E+00
3.224550 0.127034E+01 0.840885E+00 0.883549E+00
3.251760 0.135241E+01 0.907987E+00 0.967253E+00
3.278970 0.145369E+01 0.986350E+00 0.105996E+01
3.306180 0.157438E+01 0.107738E+01 0.116287E+01
3.333400 0.171323E+01 0.118241E+01 0.127749E+01
3.360610 0.186785E+01 0.130255E+01 0.140530E+01
3.387820 0.203573E+01 0.143864E+01 0.154725E+01
3.415030 0.221465E+01 0.159072E+01 0.170369E+01
3.442240 0.240334E+01 0.175841E+01 0.187485E+01
3.469450 0.260226E+01 0.194149E+01 0.206017E+01
3.496660 0.281446E+01 0.214021E+01 0.225795E+01
3.523880 0.304484E+01 0.235523E+01 0.246682E+01
3.551090 0.329754E+01 0.258692E+01 0.268663E+01
3.578300 0.357379E+01 0.283496E+01 0.291822E+01
3.605510 0.387056E+01 0.309766E+01 0.316120E+01
3.632720 0.418236E+01 0.337298E+01 0.341200E+01
3.659930 0.450296E+01 0.365860E+01 0.366364E+01
3.687140 0.482440E+01 0.394989E+01 0.390821E+01
3.714360 0.513786E+01 0.424018E+01 0.414083E+01
3.741570 0.543675E+01 0.452229E+01 0.435955E+01
3.768780 0.571807E+01 0.478842E+01 0.456193E+01
3.795990 0.597932E+01 0.502997E+01 0.474474E+01
3.823200 0.621733E+01 0.524075E+01 0.490757E+01
3.850410 0.642969E+01 0.541747E+01 0.505159E+01
3.877620 0.661845E+01 0.555675E+01 0.517594E+01
3.904840 0.679226E+01 0.565345E+01 0.527831E+01
3.932050 0.696078E+01 0.570289E+01 0.535720E+01
3.959260 0.712862E+01 0.570553E+01 0.541285E+01
3.986470 0.729622E+01 0.567016E+01 0.544779E+01
4.013680 0.746181E+01 0.561339E+01 0.546846E+01
4.040890 0.762027E+01 0.555489E+01 0.548494E+01
4.068100 0.776445E+01 0.551148E+01 0.550836E+01
4.095310 0.788836E+01 0.549352E+01 0.554697E+01
4.122530 0.798838E+01 0.550336E+01 0.560234E+01
4.149740 0.806131E+01 0.553577E+01 0.566875E+01
4.176950 0.810381E+01 0.558264E+01 0.573827E+01
4.204160 0.811770E+01 0.563831E+01 0.580614E+01
4.231370 0.811486E+01 0.570069E+01 0.587072E+01
4.258580 0.811038E+01 0.576936E+01 0.593105E+01
4.285790 0.811130E+01 0.584132E+01 0.598488E+01
4.313010 0.811494E+01 0.590869E+01 0.602890E+01
4.340220 0.811516E+01 0.596238E+01 0.606117E+01
4.367430 0.810769E+01 0.599803E+01 0.608256E+01
4.394640 0.808905E+01 0.601662E+01 0.609497E+01
4.421850 0.805440E+01 0.602161E+01 0.609945E+01
4.449060 0.800076E+01 0.601727E+01 0.609607E+01
4.476270 0.793074E+01 0.600762E+01 0.608541E+01
4.503490 0.784910E+01 0.599508E+01 0.606913E+01
4.530700 0.775762E+01 0.597974E+01 0.604798E+01
4.557910 0.765517E+01 0.596054E+01 0.602094E+01
4.585120 0.754073E+01 0.593700E+01 0.598796E+01
4.612330 0.741437E+01 0.590985E+01 0.595257E+01
4.639540 0.727652E+01 0.588100E+01 0.592023E+01
4.666750 0.712735E+01 0.585257E+01 0.589429E+01
4.693970 0.696748E+01 0.582515E+01 0.587463E+01
4.721180 0.679997E+01 0.579747E+01 0.585941E+01
4.748390 0.663001E+01 0.576788E+01 0.584623E+01
4.775600 0.646181E+01 0.573520E+01 0.583277E+01
4.802810 0.629680E+01 0.569753E+01 0.581700E+01
4.830020 0.613581E+01 0.565204E+01 0.579702E+01
4.857230 0.597977E+01 0.559781E+01 0.577096E+01
4.884450 0.582793E+01 0.553721E+01 0.573714E+01
4.911660 0.567827E+01 0.547440E+01 0.569452E+01
4.938870 0.553030E+01 0.541333E+01 0.564355E+01
4.966080 0.538710E+01 0.535763E+01 0.558713E+01
4.993290 0.525259E+01 0.531033E+01 0.552990E+01
5.020500 0.512815E+01 0.527273E+01 0.547571E+01
5.047710 0.501306E+01 0.524322E+01 0.542615E+01
5.074930 0.490664E+01 0.521681E+01 0.538098E+01
5.102140 0.480860E+01 0.518747E+01 0.533924E+01
5.129350 0.471787E+01 0.515269E+01 0.529927E+01
5.156560 0.463267E+01 0.511456E+01 0.525888E+01
5.183770 0.455100E+01 0.507645E+01 0.521674E+01
5.210980 0.447190E+01 0.504001E+01 0.517282E+01
5.238190 0.439671E+01 0.500489E+01 0.512779E+01
5.265400 0.432902E+01 0.497048E+01 0.508319E+01
5.292620 0.427291E+01 0.493708E+01 0.504138E+01
5.319830 0.423063E+01 0.490525E+01 0.500377E+01
5.347040 0.420139E+01 0.487476E+01 0.496931E+01
5.374250 0.418262E+01 0.484479E+01 0.493499E+01
5.401460 0.417131E+01 0.481406E+01 0.489796E+01
5.428670 0.416414E+01 0.478081E+01 0.485668E+01
5.455880 0.415854E+01 0.474388E+01 0.481114E+01
5.483100 0.415483E+01 0.470415E+01 0.476264E+01
5.510310 0.415574E+01 0.466353E+01 0.471321E+01
5.537520 0.416344E+01 0.462324E+01 0.466446E+01
5.564730 0.417820E+01 0.458450E+01 0.461745E+01
5.591940 0.419997E+01 0.454929E+01 0.457242E+01
5.619150 0.423005E+01 0.451935E+01 0.452862E+01
5.646360 0.427043E+01 0.449372E+01 0.448512E+01
5.673580 0.432180E+01 0.446792E+01 0.444126E+01
5.700790 0.438272E+01 0.443704E+01 0.439694E+01
5.728000 0.445072E+01 0.440030E+01 0.435286E+01
5.755210 0.452317E+01 0.436043E+01 0.431028E+01
5.782420 0.459752E+01 0.431849E+01 0.427048E+01
5.809630 0.467124E+01 0.427315E+01 0.423415E+01
5.836840 0.474149E+01 0.422447E+01 0.420073E+01
5.864060 0.480446E+01 0.417481E+01 0.416844E+01
5.891270 0.485794E+01 0.412684E+01 0.413533E+01
5.918480 0.490321E+01 0.408177E+01 0.410086E+01
5.945690 0.494352E+01 0.404009E+01 0.406676E+01
5.972900 0.498341E+01 0.400455E+01 0.403686E+01
6.000110 0.502866E+01 0.398033E+01 0.401566E+01
6.027320 0.508574E+01 0.397158E+01 0.400612E+01
6.054540 0.515865E+01 0.397901E+01 0.400844E+01
6.081750 0.524509E+01 0.400021E+01 0.402096E+01
6.108960 0.533837E+01 0.403191E+01 0.404165E+01
6.136170 0.543252E+01 0.407132E+01 0.406852E+01
6.163380 0.552490E+01 0.411552E+01 0.409996E+01
6.190590 0.561490E+01 0.416163E+01 0.413510E+01
6.217800 0.570231E+01 0.420788E+01 0.417308E+01
6.245020 0.578675E+01 0.425365E+01 0.421290E+01
6.272230 0.586710E+01 0.429761E+01 0.425452E+01
6.299440 0.594200E+01 0.433731E+01 0.429919E+01
6.326650 0.601172E+01 0.437159E+01 0.434797E+01
6.353860 0.607842E+01 0.440137E+01 0.440089E+01
6.381070 0.614415E+01 0.442791E+01 0.445707E+01
6.408280 0.621004E+01 0.445168E+01 0.451476E+01
6.435490 0.627753E+01 0.447306E+01 0.457098E+01
6.462710 0.634945E+01 0.449402E+01 0.462225E+01
6.489920 0.642956E+01 0.451792E+01 0.466640E+01
6.517130 0.652268E+01 0.454656E+01 0.470463E+01
6.544340 0.663279E+01 0.457886E+01 0.474187E+01
6.571550 0.675890E+01 0.461325E+01 0.478410E+01
6.598760 0.689480E+01 0.464977E+01 0.483472E+01
6.625970 0.703538E+01 0.468893E+01 0.489297E+01
6.653190 0.718147E+01 0.473057E+01 0.495445E+01
6.680400 0.733661E+01 0.477424E+01 0.501361E+01
6.707610 0.750066E+01 0.481962E+01 0.506669E+01
6.734820 0.766693E+01 0.486565E+01 0.511256E+01
6.762030 0.782486E+01 0.491081E+01 0.515232E+01
6.789240 0.796407E+01 0.495480E+01 0.518827E+01
6.816450 0.807644E+01 0.499883E+01 0.522267E+01
6.843670 0.815813E+01 0.504440E+01 0.525789E+01
6.870880 0.821175E+01 0.509356E+01 0.529683E+01
6.898090 0.824432E+01 0.514955E+01 0.534226E+01
6.925300 0.826300E+01 0.521573E+01 0.539580E+01
6.952510 0.827412E+01 0.529380E+01 0.545859E+01
6.979720 0.828275E+01 0.538250E+01 0.553270E+01
7.006930 0.829079E+01 0.547774E+01 0.562026E+01
7.034150 0.829695E+01 0.557332E+01 0.571978E+01
7.061360 0.830003E+01 0.566252E+01 0.582330E+01
7.088570 0.830114E+01 0.574063E+01 0.591918E+01
7.115780 0.830176E+01 0.580483E+01 0.599770E+01
7.142990 0.830265E+01 0.585372E+01 0.605425E+01
7.170200 0.830609E+01 0.588834E+01 0.608850E+01
7.197410 0.831643E+01 0.591183E+01 0.610286E+01
7.224630 0.833596E+01 0.592695E+01 0.610182E+01
7.251840 0.836023E+01 0.593484E+01 0.609032E+01
7.279050 0.838065E+01 0.593561E+01 0.607105E+01
7.306260 0.839316E+01 0.592843E+01 0.604403E+01
7.333470 0.840143E+01 0.591218E+01 0.600820E+01
7.360680 0.841039E+01 0.588720E+01 0.596307E+01
7.387890 0.842064E+01 0.585591E+01 0.591002E+01
7.415110 0.842953E+01 0.582090E+01 0.585191E+01
7.442320 0.843477E+01 0.578302E+01 0.579057E+01
7.469530 0.843523E+01 0.574143E+01 0.572488E+01
7.496740 0.843020E+01 0.569465E+01 0.565250E+01
7.523950 0.842031E+01 0.564120E+01 0.557357E+01
7.551160 0.840507E+01 0.557938E+01 0.549193E+01
7.578370 0.837986E+01 0.550714E+01 0.541107E+01
7.605580 0.834029E+01 0.542372E+01 0.533070E+01
7.632800 0.828742E+01 0.533104E+01 0.524778E+01
7.660010 0.822628E+01 0.523143E+01 0.516012E+01
7.687220 0.816042E+01 0.512533E+01 0.506752E+01
7.714430 0.808911E+01 0.501384E+01 0.497169E+01
7.741640 0.800926E+01 0.489966E+01 0.487553E+01
7.768850 0.792005E+01 0.478474E+01 0.478185E+01
7.796060 0.782432E+01 0.466971E+01 0.469111E+01
7.823280 0.772510E+01 0.455613E+01 0.460043E+01
7.850490 0.762288E+01 0.444678E+01 0.450587E+01
7.877700 0.751556E+01 0.434181E+01 0.440425E+01
7.904910 0.739878E+01 0.423719E+01 0.429353E+01
7.932120 0.726638E+01 0.412812E+01 0.417323E+01
7.959330 0.711482E+01 0.401394E+01 0.404552E+01
7.986540 0.694636E+01 0.389834E+01 0.391515E+01
8.013760 0.676779E+01 0.378545E+01 0.378781E+01
8.040970 0.658751E+01 0.367759E+01 0.366821E+01
8.068180 0.641164E+01 0.357536E+01 0.355903E+01
8.095390 0.624290E+01 0.347885E+01 0.346124E+01
8.122600 0.608187E+01 0.338851E+01 0.337402E+01
8.149810 0.592776E+01 0.330527E+01 0.329508E+01
8.177020 0.577918E+01 0.322892E+01 0.322116E+01
8.204240 0.563635E+01 0.315658E+01 0.314850E+01
8.231450 0.550126E+01 0.308392E+01 0.307428E+01
8.258660 0.537532E+01 0.300835E+01 0.299767E+01
8.285870 0.525806E+01 0.293065E+01 0.291972E+01
8.313080 0.514782E+01 0.285390E+01 0.284208E+01
8.340290 0.504301E+01 0.278193E+01 0.276655E+01
8.367500 0.494191E+01 0.271744E+01 0.269494E+01
8.394720 0.484240E+01 0.266038E+01 0.262878E+01
8.421930 0.474360E+01 0.260913E+01 0.256960E+01
8.449140 0.464630E+01 0.256218E+01 0.251857E+01
8.476350 0.455287E+01 0.251881E+01 0.247553E+01
8.503560 0.446685E+01 0.247902E+01 0.243880E+01
8.530770 0.439084E+01 0.244357E+01 0.240643E+01
8.557980 0.432411E+01 0.241277E+01 0.237679E+01
8.585200 0.426234E+01 0.238466E+01 0.234820E+01
8.612410 0.420002E+01 0.235508E+01 0.231855E+01
8.639620 0.413293E+01 0.231998E+01 0.228548E+01
8.666830 0.405876E+01 0.227765E+01 0.224737E+01
8.694040 0.397636E+01 0.222853E+01 0.220379E+01
8.721250 0.388568E+01 0.217347E+01 0.215508E+01
8.748460 0.378772E+01 0.211290E+01 0.210206E+01
8.775670 0.368350E+01 0.204775E+01 0.204614E+01
8.802890 0.357395E+01 0.198038E+01 0.198910E+01
8.830100 0.346129E+01 0.191445E+01 0.193300E+01
8.857310 0.334929E+01 0.185364E+01 0.188013E+01
8.884520 0.324131E+01 0.179981E+01 0.183225E+01
8.911730 0.313785E+01 0.175211E+01 0.178975E+01
8.938940 0.303683E+01 0.170823E+01 0.175171E+01
8.966150 0.293590E+01 0.166665E+01 0.171654E+01
8.993370 0.283442E+01 0.162743E+01 0.168287E+01
9.020580 0.273357E+01 0.159131E+01 0.164970E+01
9.047790 0.263518E+01 0.155828E+01 0.161618E+01
9.075000 0.254093E+01 0.152737E+01 0.158159E+01
9.102210 0.245120E+01 0.149747E+01 0.154583E+01
9.129420 0.236544E+01 0.146831E+01 0.150985E+01
9.156630 0.228363E+01 0.144053E+01 0.147514E+01
9.183850 0.220688E+01 0.141483E+01 0.144301E+01
9.211060 0.213623E+01 0.139082E+01 0.141399E+01
9.238270 0.207082E+01 0.136682E+01 0.138795E+01
9.265480 0.200841E+01 0.134140E+01 0.136475E+01
9.292690 0.194701E+01 0.131451E+01 0.134396E+01
9.319900 0.188549E+01 0.128714E+01 0.132425E+01
9.347110 0.182348E+01 0.126053E+01 0.130389E+01
9.374330 0.176137E+01 0.123557E+01 0.128184E+01
9.401540 0.170046E+01 0.121243E+01 0.125816E+01
9.428750 0.164198E+01 0.119071E+01 0.123355E+01
9.455960 0.158640E+01 0.116978E+01 0.120895E+01
9.483170 0.153348E+01 0.114882E+01 0.118506E+01
9.510380 0.148285E+01 0.112717E+01 0.116215E+01
9.537590 0.143413E+01 0.110476E+01 0.114027E+01
9.564810 0.138697E+01 0.108183E+01 0.111936E+01
9.592020 0.134148E+01 0.105871E+01 0.109920E+01
9.619230 0.129835E+01 0.103595E+01 0.107929E+01
9.646440 0.125838E+01 0.101422E+01 0.105931E+01
9.673650 0.122179E+01 0.994034E+00 0.103942E+01
9.700860 0.118814E+01 0.975552E+00 0.101973E+01
9.728070 0.115684E+01 0.958760E+00 0.100016E+01
9.755290 0.112772E+01 0.943752E+00 0.980917E+00
9.782500 0.110106E+01 0.930642E+00 0.962756E+00
9.809710 0.107713E+01 0.919342E+00 0.946602E+00
9.836920 0.105565E+01 0.909571E+00 0.932963E+00
9.864130 0.103593E+01 0.900957E+00 0.921530E+00
9.891340 0.101736E+01 0.893163E+00 0.911248E+00
9.918550 0.999822E+00 0.885943E+00 0.900931E+00
9.945760 0.983662E+00 0.879052E+00 0.890016E+00
9.972980 0.969381E+00 0.872215E+00 0.878800E+00
10.000190 0.957385E+00 0.865336E+00 0.867985E+00
10.027400 0.947624E+00 0.858485E+00 0.857886E+00
10.054610 0.939460E+00 0.851671E+00 0.848178E+00
10.081820 0.932127E+00 0.844844E+00 0.838336E+00
10.109030 0.925120E+00 0.838105E+00 0.828053E+00
10.136240 0.918053E+00 0.831663E+00 0.817250E+00
10.163460 0.910601E+00 0.825497E+00 0.806084E+00
10.190670 0.902906E+00 0.819218E+00 0.795070E+00
10.217880 0.895743E+00 0.812350E+00 0.784868E+00
10.245090 0.889726E+00 0.804506E+00 0.775764E+00
10.272300 0.884228E+00 0.795178E+00 0.767361E+00
10.299510 0.877434E+00 0.783809E+00 0.758809E+00
10.326720 0.867532E+00 0.770263E+00 0.749309E+00
10.353940 0.853712E+00 0.754952E+00 0.738464E+00
10.381150 0.836366E+00 0.738535E+00 0.726313E+00
10.408360 0.816731E+00 0.721649E+00 0.713112E+00
10.435570 0.796327E+00 0.704920E+00 0.699091E+00
10.462780 0.776489E+00 0.688903E+00 0.684367E+00
10.489990 0.758398E+00 0.673983E+00 0.669186E+00
10.517200 0.743169E+00 0.660367E+00 0.654090E+00
10.544420 0.731511E+00 0.647986E+00 0.639589E+00
10.571630 0.723460E+00 0.636530E+00 0.625875E+00
10.598840 0.718466E+00 0.625575E+00 0.612903E+00
10.626050 0.715567E+00 0.614779E+00 0.600631E+00
10.653260 0.713577E+00 0.604039E+00 0.589131E+00
10.680470 0.711397E+00 0.593532E+00 0.578552E+00
10.707680 0.708213E+00 0.583589E+00 0.568914E+00
10.734900 0.703566E+00 0.574508E+00 0.560048E+00
10.762110 0.697386E+00 0.566462E+00 0.551806E+00
10.789320 0.689953E+00 0.559534E+00 0.544189E+00
10.816530 0.681687E+00 0.553800E+00 0.537293E+00
10.843740 0.672855E+00 0.549332E+00 0.531177E+00
10.870950 0.663441E+00 0.546098E+00 0.525743E+00
10.898160 0.653321E+00 0.543827E+00 0.520799E+00
10.925380 0.642528E+00 0.541971E+00 0.516199E+00
10.952590 0.631172E+00 0.539891E+00 0.511817E+00
10.979800 0.619266E+00 0.537171E+00 0.507495E+00
11.007010 0.606901E+00 0.533893E+00 0.503249E+00
11.034220 0.594414E+00 0.530538E+00 0.499418E+00
11.061430 0.582254E+00 0.527598E+00 0.496452E+00
11.088640 0.570747E+00 0.525303E+00 0.494570E+00
11.115850 0.560075E+00 0.523656E+00 0.493661E+00
11.143070 0.550362E+00 0.522645E+00 0.493425E+00
11.170280 0.541760E+00 0.522347E+00 0.493543E+00
11.197490 0.534424E+00 0.522795E+00 0.493763E+00
11.224700 0.528530E+00 0.523833E+00 0.493921E+00
11.251910 0.524302E+00 0.525082E+00 0.493877E+00
11.279120 0.521991E+00 0.525978E+00 0.493415E+00
11.306330 0.521780E+00 0.525954E+00 0.492249E+00
11.333550 0.523611E+00 0.524656E+00 0.490092E+00
11.360760 0.527001E+00 0.522038E+00 0.486807E+00
11.387970 0.530997E+00 0.518349E+00 0.482613E+00
11.415180 0.534384E+00 0.513945E+00 0.478098E+00
11.442390 0.536143E+00 0.509026E+00 0.474014E+00
11.469600 0.535837E+00 0.503508E+00 0.470987E+00
11.496810 0.533525E+00 0.497039E+00 0.469165E+00
11.524030 0.529499E+00 0.489239E+00 0.468059E+00
11.551240 0.524139E+00 0.480160E+00 0.466857E+00
11.578450 0.517838E+00 0.470429E+00 0.464862E+00
11.605660 0.511014E+00 0.461031E+00 0.461763E+00
11.632870 0.504144E+00 0.452878E+00 0.457646E+00
11.660080 0.497785E+00 0.446428E+00 0.452871E+00
11.687290 0.492483E+00 0.441674E+00 0.447945E+00
11.714510 0.488619E+00 0.438372E+00 0.443322E+00
11.741720 0.486342E+00 0.436315E+00 0.439272E+00
11.768930 0.485613E+00 0.435525E+00 0.435900E+00
11.796140 0.486270E+00 0.436181E+00 0.433234E+00
11.823350 0.488072E+00 0.438364E+00 0.431321E+00
11.850560 0.490748E+00 0.441909E+00 0.430279E+00
11.877770 0.494023E+00 0.446396E+00 0.430216E+00
11.904990 0.497614E+00 0.451243E+00 0.431060E+00
11.932200 0.501290E+00 0.455880E+00 0.432555E+00
11.959410 0.504987E+00 0.459973E+00 0.434460E+00
11.986620 0.508764E+00 0.463492E+00 0.436762E+00
12.013830 0.512625E+00 0.466656E+00 0.439737E+00
12.041040 0.516445E+00 0.469869E+00 0.443818E+00
12.068250 0.520021E+00 0.473564E+00 0.449301E+00
12.095470 0.523062E+00 0.478026E+00 0.456027E+00
12.122680 0.525119E+00 0.483383E+00 0.463308E+00
12.149890 0.525689E+00 0.489687E+00 0.470282E+00
12.177100 0.524496E+00 0.496833E+00 0.476305E+00
12.204310 0.521687E+00 0.504382E+00 0.481078E+00
12.231520 0.517684E+00 0.511694E+00 0.484521E+00
12.258730 0.512877E+00 0.518423E+00 0.486825E+00
12.285940 0.507564E+00 0.524798E+00 0.488591E+00
12.313160 0.502054E+00 0.531381E+00 0.490711E+00
12.340370 0.496800E+00 0.538609E+00 0.494030E+00
12.367580 0.492380E+00 0.546496E+00 0.498995E+00
12.394790 0.489342E+00 0.554615E+00 0.505538E+00
12.422000 0.488086E+00 0.562361E+00 0.513264E+00
12.449210 0.488883E+00 0.569212E+00 0.521702E+00
12.476420 0.491896E+00 0.574821E+00 0.530407E+00
12.503640 0.497150E+00 0.579069E+00 0.538907E+00
12.530850 0.504474E+00 0.582079E+00 0.546660E+00
12.558060 0.513621E+00 0.584174E+00 0.553219E+00
12.585270 0.524452E+00 0.585806E+00 0.558365E+00
12.612480 0.536976E+00 0.587629E+00 0.562103E+00
12.639690 0.551198E+00 0.590505E+00 0.564678E+00
12.666900 0.566898E+00 0.595185E+00 0.566493E+00
12.694120 0.583479E+00 0.601880E+00 0.567964E+00
12.721330 0.600030E+00 0.610208E+00 0.569413E+00
12.748540 0.615703E+00 0.619640E+00 0.571146E+00
12.775750 0.630002E+00 0.629986E+00 0.573657E+00
12.802960 0.642622E+00 0.641569E+00 0.577581E+00
12.830170 0.653026E+00 0.654887E+00 0.583368E+00
12.857380 0.660412E+00 0.670211E+00 0.591175E+00
12.884600 0.664060E+00 0.687469E+00 0.601029E+00
12.911810 0.663689E+00 0.706225E+00 0.612822E+00
12.939020 0.659571E+00 0.725772E+00 0.626187E+00
12.966230 0.652382E+00 0.745288E+00 0.640495E+00
12.993440 0.643004E+00 0.764081E+00 0.655123E+00
13.020650 0.632335E+00 0.781604E+00 0.669706E+00
13.047860 0.621131E+00 0.797349E+00 0.684210E+00
13.075080 0.610024E+00 0.810954E+00 0.698902E+00
13.102290 0.599689E+00 0.822411E+00 0.714122E+00
13.129500 0.590722E+00 0.832241E+00 0.730035E+00
13.156710 0.583387E+00 0.841318E+00 0.746447E+00
13.183920 0.577560E+00 0.850366E+00 0.762754E+00
13.211130 0.572944E+00 0.859510E+00 0.778171E+00
13.238340 0.569393E+00 0.868231E+00 0.792264E+00
13.265560 0.567045E+00 0.875736E+00 0.805270E+00
13.292770 0.566100E+00 0.881425E+00 0.817890E+00
13.319980 0.566589E+00 0.885178E+00 0.830957E+00
13.347190 0.568349E+00 0.887392E+00 0.845147E+00
13.374400 0.571144E+00 0.888937E+00 0.860745E+00
13.401610 0.574835E+00 0.890904E+00 0.877475E+00
13.428820 0.579416E+00 0.894247E+00 0.894552E+00
13.456030 0.584866E+00 0.899504E+00 0.911124E+00
13.483250 0.591041E+00 0.906600E+00 0.926770E+00
13.510460 0.597716E+00 0.914838E+00 0.941591E+00
13.537670 0.604714E+00 0.923252E+00 0.955946E+00
13.564880 0.611911E+00 0.930812E+00 0.969859E+00
13.592090 0.619298E+00 0.936546E+00 0.982719E+00
13.619300 0.627117E+00 0.939977E+00 0.993685E+00
13.646510 0.635764E+00 0.941436E+00 0.100248E+01
13.673730 0.645525E+00 0.941867E+00 0.100974E+01
13.700940 0.656473E+00 0.942490E+00 0.101638E+01
13.728150 0.668501E+00 0.944449E+00 0.102304E+01
13.755360 0.681337E+00 0.948452E+00 0.103002E+01
13.782570 0.694571E+00 0.954673E+00 0.103757E+01
13.809780 0.707602E+00 0.962899E+00 0.104577E+01
13.836990 0.719777E+00 0.972753E+00 0.105432E+01
13.864210 0.730774E+00 0.983900E+00 0.106241E+01
13.891420 0.740674E+00 0.996224E+00 0.106908E+01
13.918630 0.749731E+00 0.100989E+01 0.107377E+01
13.945840 0.758009E+00 0.102501E+01 0.107659E+01
13.973050 0.765291E+00 0.104136E+01 0.107809E+01
14.000260 0.771331E+00 0.105847E+01 0.107887E+01
14.027470 0.776113E+00 0.107590E+01 0.107944E+01
14.054690 0.779938E+00 0.109334E+01 0.108027E+01
14.081900 0.783331E+00 0.111043E+01 0.108177E+01
14.109110 0.786812E+00 0.112661E+01 0.108435E+01
14.136320 0.790648E+00 0.114145E+01 0.108831E+01
14.163530 0.794920E+00 0.115495E+01 0.109355E+01
14.190740 0.799840E+00 0.116752E+01 0.109966E+01
14.217950 0.805762E+00 0.117960E+01 0.110610E+01
14.245170 0.812794E+00 0.119135E+01 0.111261E+01
14.272380 0.820603E+00 0.120256E+01 0.111932E+01
14.299590 0.828831E+00 0.121303E+01 0.112653E+01
14.326800 0.837533E+00 0.122283E+01 0.113449E+01
14.354010 0.847103E+00 0.123213E+01 0.114331E+01
14.381220 0.857910E+00 0.124081E+01 0.115304E+01
14.408430 0.870046E+00 0.124853E+01 0.116339E+01
14.435650 0.883300E+00 0.125498E+01 0.117363E+01
14.462860 0.897229E+00 0.126008E+01 0.118280E+01
14.490070 0.911380E+00 0.126409E+01 0.119030E+01
14.517280 0.925500E+00 0.126764E+01 0.119649E+01
14.544490 0.939615E+00 0.127141E+01 0.120265E+01
14.571700 0.953807E+00 0.127583E+01 0.121033E+01
14.598910 0.968082E+00 0.128109E+01 0.122066E+01
14.626120 0.982457E+00 0.128731E+01 0.123408E+01
14.653340 0.997009E+00 0.129465E+01 0.125048E+01
14.680550 0.101186E+01 0.130326E+01 0.126933E+01
14.707760 0.102727E+01 0.131316E+01 0.128965E+01
14.734970 0.104352E+01 0.132430E+01 0.131010E+01
14.762180 0.106060E+01 0.133653E+01 0.132921E+01
14.789390 0.107807E+01 0.134972E+01 0.134564E+01
14.816600 0.109538E+01 0.136374E+01 0.135850E+01
14.843820 0.111229E+01 0.137832E+01 0.136740E+01
14.871030 0.112890E+01 0.139302E+01 0.137252E+01
14.898240 0.114534E+01 0.140721E+01 0.137455E+01
14.925450 0.116147E+01 0.142022E+01 0.137451E+01
14.952660 0.117686E+01 0.143159E+01 0.137361E+01
14.979870 0.119111E+01 0.144105E+01 0.137285E+01
15.007080 0.120424E+01 0.144829E+01 0.137278E+01
15.034300 0.121665E+01 0.145293E+01 0.137358E+01
15.061510 0.122880E+01 0.145484E+01 0.137541E+01
15.088720 0.124086E+01 0.145447E+01 0.137854E+01
15.115930 0.125265E+01 0.145276E+01 0.138311E+01
15.143140 0.126388E+01 0.145065E+01 0.138878E+01
15.170350 0.127428E+01 0.144892E+01 0.139466E+01
15.197560 0.128395E+01 0.144849E+01 0.140016E+01
15.224780 0.129351E+01 0.145040E+01 0.140564E+01
15.251990 0.130358E+01 0.145522E+01 0.141224E+01
15.279200 0.131430E+01 0.146252E+01 0.142102E+01
15.306410 0.132525E+01 0.147132E+01 0.143247E+01
15.333620 0.133598E+01 0.148081E+01 0.144650E+01
15.360830 0.134632E+01 0.149068E+01 0.146260E+01
15.388040 0.135663E+01 0.150082E+01 0.148017E+01
15.415260 0.136801E+01 0.151125E+01 0.149867E+01
15.442470 0.138223E+01 0.152224E+01 0.151758E+01
15.469680 0.140096E+01 0.153403E+01 0.153621E+01
15.496890 0.142496E+01 0.154663E+01 0.155374E+01
15.524100 0.145378E+01 0.155998E+01 0.156963E+01
15.551310 0.148569E+01 0.157395E+01 0.158385E+01
15.578520 0.151801E+01 0.158819E+01 0.159680E+01
15.605740 0.154828E+01 0.160233E+01 0.160916E+01
15.632950 0.157528E+01 0.161640E+01 0.162141E+01
15.660160 0.159890E+01 0.163061E+01 0.163323E+01
15.687370 0.161930E+01 0.164481E+01 0.164359E+01
15.714580 0.163654E+01 0.165840E+01 0.165181E+01
15.741790 0.165058E+01 0.167062E+01 0.165803E+01
15.769000 0.166127E+01 0.168085E+01 0.166279E+01
15.796210 0.166873E+01 0.168919E+01 0.166655E+01
15.823430 0.167340E+01 0.169656E+01 0.166990E+01
15.850640 0.167547E+01 0.170415E+01 0.167372E+01
15.877850 0.167475E+01 0.171276E+01 0.167878E+01
15.905060 0.167121E+01 0.172224E+01 0.168486E+01
15.932270 0.166558E+01 0.173176E+01 0.169048E+01
15.959480 0.165902E+01 0.174071E+01 0.169400E+01
15.986690 0.165245E+01 0.174907E+01 0.169518E+01
16.013910 0.164636E+01 0.175692E+01 0.169520E+01
16.041120 0.164121E+01 0.176381E+01 0.169524E+01
16.068330 0.163801E+01 0.176914E+01 0.169535E+01
16.095540 0.163829E+01 0.177241E+01 0.169468E+01
16.122750 0.164335E+01 0.177346E+01 0.169251E+01
16.149960 0.165362E+01 0.177259E+01 0.168893E+01
16.177170 0.166836E+01 0.177019E+01 0.168472E+01
16.204390 0.168603E+01 0.176645E+01 0.168093E+01
16.231600 0.170446E+01 0.176150E+01 0.167850E+01
16.258810 0.172130E+01 0.175551E+01 0.167781E+01
16.286020 0.173483E+01 0.174886E+01 0.167822E+01
16.313230 0.174508E+01 0.174224E+01 0.167861E+01
16.340440 0.175369E+01 0.173648E+01 0.167834E+01
16.367650 0.176221E+01 0.173190E+01 0.167729E+01
16.394870 0.177101E+01 0.172795E+01 0.167531E+01
16.422080 0.177939E+01 0.172351E+01 0.167215E+01
16.449290 0.178613E+01 0.171787E+01 0.166788E+01
16.476500 0.178981E+01 0.171111E+01 0.166299E+01
16.503710 0.178899E+01 0.170368E+01 0.165800E+01
16.530920 0.178233E+01 0.169591E+01 0.165306E+01
16.558130 0.176894E+01 0.168780E+01 0.164788E+01
16.585350 0.174912E+01 0.167893E+01 0.164193E+01
16.612560 0.172479E+01 0.166858E+01 0.163472E+01
16.639770 0.169889E+01 0.165573E+01 0.162592E+01
16.666980 0.167447E+01 0.163982E+01 0.161571E+01
16.694190 0.165353E+01 0.162174E+01 0.160518E+01
16.721400 0.163676E+01 0.160361E+01 0.159602E+01
16.748610 0.162411E+01 0.158755E+01 0.158958E+01
16.775830 0.161512E+01 0.157470E+01 0.158613E+01
16.803040 0.160921E+01 0.156527E+01 0.158492E+01
16.830250 0.160572E+01 0.155887E+01 0.158485E+01
16.857460 0.160418E+01 0.155500E+01 0.158506E+01
16.884670 0.160484E+01 0.155329E+01 0.158496E+01
16.911880 0.160863E+01 0.155375E+01 0.158461E+01
16.939090 0.161616E+01 0.155649E+01 0.158503E+01
16.966300 0.162706E+01 0.156118E+01 0.158753E+01
16.993520 0.164037E+01 0.156674E+01 0.159239E+01
17.020730 0.165545E+01 0.157178E+01 0.159864E+01
17.047940 0.167229E+01 0.157557E+01 0.160510E+01
17.075150 0.169114E+01 0.157836E+01 0.161137E+01
17.102360 0.171220E+01 0.158101E+01 0.161799E+01
17.129570 0.173538E+01 0.158435E+01 0.162585E+01
17.156780 0.175993E+01 0.158857E+01 0.163549E+01
17.184000 0.178430E+01 0.159289E+01 0.164691E+01
17.211210 0.180625E+01 0.159607E+01 0.165981E+01
17.238420 0.182336E+01 0.159736E+01 0.167373E+01
17.265630 0.183373E+01 0.159717E+01 0.168808E+01
17.292840 0.183640E+01 0.159663E+01 0.170210E+01
17.320050 0.183153E+01 0.159678E+01 0.171496E+01
17.347260 0.182037E+01 0.159805E+01 0.172589E+01
17.374480 0.180472E+01 0.160044E+01 0.173439E+01
17.401690 0.178611E+01 0.160363E+01 0.174041E+01
17.428900 0.176552E+01 0.160707E+01 0.174433E+01
17.456110 0.174384E+01 0.161019E+01 0.174690E+01
17.483320 0.172236E+01 0.161266E+01 0.174852E+01
17.510530 0.170282E+01 0.161462E+01 0.174857E+01
17.537740 0.168698E+01 0.161662E+01 0.174627E+01
17.564960 0.167564E+01 0.161908E+01 0.174195E+01
17.592170 0.166848E+01 0.162173E+01 0.173692E+01
17.619380 0.166465E+01 0.162378E+01 0.173223E+01
17.646590 0.166348E+01 0.162503E+01 0.172796E+01
17.673800 0.166450E+01 0.162605E+01 0.172316E+01
17.701010 0.166734E+01 0.162722E+01 0.171670E+01
17.728220 0.167189E+01 0.162833E+01 0.170832E+01
17.755440 0.167854E+01 0.162913E+01 0.169882E+01
17.782650 0.168781E+01 0.162971E+01 0.168957E+01
17.809860 0.169999E+01 0.163108E+01 0.168179E+01
17.837070 0.171507E+01 0.163461E+01 0.167590E+01
17.864280 0.173276E+01 0.164061E+01 0.167134E+01
17.891490 0.175237E+01 0.164774E+01 0.166740E+01
17.918700 0.177275E+01 0.165407E+01 0.166409E+01
17.945920 0.179249E+01 0.165823E+01 0.166197E+01
17.973130 0.181054E+01 0.165986E+01 0.166141E+01
18.000340 0.182700E+01 0.165947E+01 0.166220E+01
18.027550 0.184313E+01 0.165801E+01 0.166367E+01
18.054760 0.186037E+01 0.165651E+01 0.166494E+01
18.081970 0.187913E+01 0.165585E+01 0.166533E+01
18.109180 0.189836E+01 0.165639E+01 0.166478E+01
18.136390 0.191625E+01 0.165751E+01 0.166406E+01
18.163610 0.193131E+01 0.165782E+01 0.166456E+01
18.190820 0.194325E+01 0.165603E+01 0.166731E+01
18.218030 0.195313E+01 0.165176E+01 0.167198E+01
18.245240 0.196264E+01 0.164583E+01 0.167740E+01
18.272450 0.197323E+01 0.163992E+01 0.168273E+01
18.299660 0.198505E+01 0.163557E+01 0.168772E+01
18.326870 0.199678E+01 0.163343E+01 0.169226E+01
18.354090 0.200697E+01 0.163337E+01 0.169614E+01
18.381300 0.201533E+01 0.163477E+01 0.169913E+01
18.408510 0.202218E+01 0.163682E+01 0.170108E+01
18.435720 0.202749E+01 0.163883E+01 0.170220E+01
18.462930 0.203095E+01 0.164037E+01 0.170307E+01
18.490140 0.203241E+01 0.164137E+01 0.170425E+01
18.517350 0.203198E+01 0.164219E+01 0.170588E+01
18.544570 0.203018E+01 0.164355E+01 0.170779E+01
18.571780 0.202802E+01 0.164609E+01 0.170967E+01
18.598990 0.202646E+01 0.164978E+01 0.171100E+01
18.626200 0.202545E+01 0.165370E+01 0.171099E+01
18.653410 0.202400E+01 0.165638E+01 0.170896E+01
18.680620 0.202117E+01 0.165646E+01 0.170442E+01
18.707830 0.201663E+01 0.165320E+01 0.169733E+01
18.735050 0.201032E+01 0.164707E+01 0.168825E+01
18.762260 0.200206E+01 0.163949E+01 0.167808E+01
18.789470 0.199194E+01 0.163218E+01 0.166777E+01
18.816680 0.198075E+01 0.162667E+01 0.165810E+01
18.843890 0.196987E+01 0.162389E+01 0.164974E+01
18.871100 0.196040E+01 0.162384E+01 0.164357E+01
18.898310 0.195277E+01 0.162542E+01 0.164074E+01
18.925530 0.194705E+01 0.162716E+01 0.164195E+01
18.952740 0.194295E+01 0.162793E+01 0.164659E+01
18.979950 0.193958E+01 0.162729E+01 0.165268E+01
19.007160 0.193590E+01 0.162534E+01 0.165785E+01
19.034370 0.193138E+01 0.162232E+01 0.166073E+01
19.061580 0.192637E+01 0.161843E+01 0.166157E+01
19.088790 0.192155E+01 0.161407E+01 0.166147E+01
19.116010 0.191713E+01 0.160982E+01 0.166131E+01
19.143220 0.191305E+01 0.160630E+01 0.166153E+01
19.170430 0.190953E+01 0.160393E+01 0.166225E+01
19.197640 0.190696E+01 0.160284E+01 0.166319E+01
19.224850 0.190534E+01 0.160291E+01 0.166392E+01
19.252060 0.190447E+01 0.160384E+01 0.166439E+01
19.279270 0.190413E+01 0.160526E+01 0.166510E+01
19.306480 0.190400E+01 0.160703E+01 0.166657E+01
19.333700 0.190364E+01 0.160927E+01 0.166881E+01
19.360910 0.190273E+01 0.161206E+01 0.167158E+01
19.388120 0.190152E+01 0.161534E+01 0.167467E+01
19.415330 0.190069E+01 0.161883E+01 0.167760E+01
19.442540 0.190087E+01 0.162206E+01 0.167935E+01
19.469750 0.190214E+01 0.162466E+01 0.167880E+01
19.496960 0.190414E+01 0.162659E+01 0.167569E+01
19.524180 0.190681E+01 0.162799E+01 0.167100E+01
19.551390 0.191029E+01 0.162906E+01 0.166595E+01
19.578600 0.191425E+01 0.163016E+01 0.166121E+01
19.605810 0.191759E+01 0.163160E+01 0.165703E+01
19.633020 0.191921E+01 0.163334E+01 0.165353E+01
19.660230 0.191907E+01 0.163509E+01 0.165080E+01
19.687440 0.191833E+01 0.163655E+01 0.164884E+01
19.714660 0.191824E+01 0.163780E+01 0.164745E+01
19.741870 0.191935E+01 0.163936E+01 0.164644E+01
19.769080 0.192119E+01 0.164181E+01 0.164594E+01
19.796290 0.192245E+01 0.164523E+01 0.164637E+01
19.823500 0.192155E+01 0.164933E+01 0.164780E+01
19.850710 0.191739E+01 0.165369E+01 0.164950E+01
19.877920 0.190998E+01 0.165772E+01 0.165027E+01
19.905140 0.190026E+01 0.166084E+01 0.164936E+01
19.932350 0.188946E+01 0.166277E+01 0.164686E+01
19.959560 0.187838E+01 0.166348E+01 0.164345E+01
19.986770 0.186698E+01 0.166320E+01 0.163986E+01
20.013980 0.185452E+01 0.166223E+01 0.163624E+01
20.041190 0.184047E+01 0.166083E+01 0.163204E+01
20.068400 0.182546E+01 0.165937E+01 0.162667E+01
20.095620 0.181105E+01 0.165852E+01 0.162016E+01
20.122830 0.179855E+01 0.165917E+01 0.161327E+01
20.150040 0.178788E+01 0.166192E+01 0.160716E+01
20.177250 0.177782E+01 0.166669E+01 0.160275E+01
20.204460 0.176737E+01 0.167272E+01 0.160009E+01
20.231670 0.175651E+01 0.167872E+01 0.159832E+01
20.258880 0.174582E+01 0.168340E+01 0.159651E+01
20.286100 0.173561E+01 0.168607E+01 0.159432E+01
20.313310 0.172571E+01 0.168665E+01 0.159181E+01
20.340520 0.171572E+01 0.168555E+01 0.158905E+01
20.367730 0.170527E+01 0.168343E+01 0.158603E+01
20.394940 0.169416E+01 0.168113E+01 0.158279E+01
20.422150 0.168264E+01 0.167943E+01 0.157951E+01
20.449360 0.167127E+01 0.167867E+01 0.157640E+01
20.476570 0.166031E+01 0.167883E+01 0.157367E+01
20.503790 0.164965E+01 0.167979E+01 0.157164E+01
20.531000 0.163937E+01 0.168127E+01 0.157086E+01
20.558210 0.163002E+01 0.168288E+01 0.157182E+01
20.585420 0.162208E+01 0.168432E+01 0.157441E+01
20.612630 0.161527E+01 0.168537E+01 0.157805E+01
20.639840 0.160875E+01 0.168584E+01 0.158224E+01
20.667050 0.160202E+01 0.168599E+01 0.158681E+01
20.694270 0.159531E+01 0.168672E+01 0.159183E+01
20.721480 0.158918E+01 0.168889E+01 0.159746E+01
20.748690 0.158378E+01 0.169249E+01 0.160382E+01
20.775900 0.157893E+01 0.169687E+01 0.161133E+01
20.803110 0.157470E+01 0.170150E+01 0.162058E+01
20.830320 0.157148E+01 0.170618E+01 0.163170E+01
20.857530 0.156945E+01 0.171075E+01 0.164421E+01
20.884750 0.156819E+01 0.171496E+01 0.165714E+01
20.911960 0.156697E+01 0.171855E+01 0.166920E+01
20.939170 0.156525E+01 0.172153E+01 0.167925E+01
20.966380 0.156316E+01 0.172432E+01 0.168694E+01
20.993590 0.156137E+01 0.172727E+01 0.169271E+01
21.020800 0.156065E+01 0.173032E+01 0.169734E+01
21.048010 0.156142E+01 0.173340E+01 0.170137E+01
21.075230 0.156342E+01 0.173712E+01 0.170507E+01
21.102440 0.156592E+01 0.174249E+01 0.170884E+01
21.129650 0.156827E+01 0.174998E+01 0.171372E+01
21.156860 0.157019E+01 0.175895E+01 0.172102E+01
21.184070 0.157186E+01 0.176799E+01 0.173122E+01
21.211280 0.157386E+01 0.177612E+01 0.174368E+01
21.238490 0.157689E+01 0.178366E+01 0.175756E+01
21.265710 0.158125E+01 0.179178E+01 0.177249E+01
21.292920 0.158678E+01 0.180147E+01 0.178825E+01
21.320130 0.159333E+01 0.181270E+01 0.180420E+01
21.347340 0.160084E+01 0.182415E+01 0.181949E+01
21.374550 0.160923E+01 0.183390E+01 0.183366E+01
21.401760 0.161831E+01 0.184080E+01 0.184678E+01
21.428970 0.162762E+01 0.184529E+01 0.185858E+01
21.456190 0.163650E+01 0.184883E+01 0.186820E+01
21.483400 0.164448E+01 0.185302E+01 0.187502E+01
21.510610 0.165151E+01 0.185875E+01 0.187916E+01
21.537820 0.165763E+01 0.186578E+01 0.188110E+01
21.565030 0.166302E+01 0.187297E+01 0.188129E+01
21.592240 0.166824E+01 0.187891E+01 0.188004E+01
21.619450 0.167418E+01 0.188272E+01 0.187790E+01
21.646660 0.168193E+01 0.188462E+01 0.187599E+01
21.673880 0.169257E+01 0.188583E+01 0.187547E+01
21.701090 0.170640E+01 0.188748E+01 0.187673E+01
21.728300 0.172258E+01 0.188955E+01 0.187937E+01
21.755510 0.173977E+01 0.189104E+01 0.188281E+01
21.782720 0.175692E+01 0.189119E+01 0.188656E+01
21.809930 0.177335E+01 0.188985E+01 0.189006E+01
21.837140 0.178860E+01 0.188729E+01 0.189274E+01
21.864360 0.180260E+01 0.188413E+01 0.189439E+01
21.891570 0.181587E+01 0.188111E+01 0.189532E+01
21.918780 0.182927E+01 0.187879E+01 0.189610E+01
21.945990 0.184325E+01 0.187727E+01 0.189730E+01
21.973200 0.185752E+01 0.187656E+01 0.189919E+01
22.000410 0.187108E+01 0.187686E+01 0.190150E+01
22.027620 0.188318E+01 0.187841E+01 0.190361E+01
22.054840 0.189402E+01 0.188091E+01 0.190517E+01
22.082050 0.190378E+01 0.188356E+01 0.190651E+01
22.109260 0.191111E+01 0.188585E+01 0.190807E+01
22.136470 0.191291E+01 0.188760E+01 0.190971E+01
22.163680 0.190617E+01 0.188875E+01 0.191081E+01
22.190890 0.189098E+01 0.188973E+01 0.191094E+01
22.218100 0.187025E+01 0.189132E+01 0.190956E+01
22.245320 0.184660E+01 0.189380E+01 0.190617E+01
22.272530 0.182100E+01 0.189651E+01 0.190114E+01
22.299740 0.179390E+01 0.189801E+01 0.189525E+01
22.326950 0.176642E+01 0.189690E+01 0.188883E+01
22.354160 0.173960E+01 0.189251E+01 0.188153E+01
22.381370 0.171385E+01 0.188514E+01 0.187286E+01
22.408580 0.168922E+01 0.187597E+01 0.186306E+01
22.435800 0.166579E+01 0.186601E+01 0.185295E+01
22.463010 0.164336E+01 0.185489E+01 0.184238E+01
22.490220 0.162129E+01 0.184080E+01 0.182962E+01
22.517430 0.159895E+01 0.182235E+01 0.181284E+01
22.544640 0.157621E+01 0.180040E+01 0.179199E+01
22.571850 0.155330E+01 0.177768E+01 0.176871E+01
22.599060 0.153076E+01 0.175664E+01 0.174461E+01
22.626280 0.150935E+01 0.173802E+01 0.172035E+01
22.653490 0.148946E+01 0.172101E+01 0.169605E+01
22.680700 0.147063E+01 0.170388E+01 0.167157E+01
22.707910 0.145190E+01 0.168476E+01 0.164689E+01
22.735120 0.143258E+01 0.166265E+01 0.162245E+01
22.762330 0.141277E+01 0.163808E+01 0.159897E+01
22.789540 0.139321E+01 0.161247E+01 0.157679E+01
22.816750 0.137468E+01 0.158715E+01 0.155563E+01
22.843970 0.135734E+01 0.156303E+01 0.153500E+01
22.871180 0.134074E+01 0.154068E+01 0.151473E+01
22.898390 0.132410E+01 0.152019E+01 0.149491E+01
22.925600 0.130701E+01 0.150138E+01 0.147570E+01
22.952810 0.128982E+01 0.148407E+01 0.145726E+01
22.980020 0.127333E+01 0.146814E+01 0.143978E+01
23.007230 0.125799E+01 0.145336E+01 0.142338E+01
23.034450 0.124356E+01 0.143927E+01 0.140812E+01
23.061660 0.122957E+01 0.142531E+01 0.139413E+01
23.088870 0.121588E+01 0.141102E+01 0.138163E+01
23.116080 0.120285E+01 0.139642E+01 0.137090E+01
23.143290 0.119116E+01 0.138194E+01 0.136198E+01
23.170500 0.118146E+01 0.136823E+01 0.135432E+01
23.197710 0.117409E+01 0.135576E+01 0.134690E+01
23.224930 0.116901E+01 0.134480E+01 0.133897E+01
23.252140 0.116581E+01 0.133537E+01 0.133053E+01
23.279350 0.116371E+01 0.132714E+01 0.132217E+01
23.306560 0.116163E+01 0.131931E+01 0.131442E+01
23.333770 0.115853E+01 0.131089E+01 0.130718E+01
23.360980 0.115371E+01 0.130137E+01 0.130001E+01
23.388190 0.114694E+01 0.129131E+01 0.129285E+01
23.415410 0.113846E+01 0.128206E+01 0.128625E+01
23.442620 0.112885E+01 0.127478E+01 0.128089E+01
23.469830 0.111885E+01 0.126971E+01 0.127708E+01
23.497040 0.110926E+01 0.126631E+01 0.127451E+01
23.524250 0.110071E+01 0.126380E+01 0.127245E+01
23.551460 0.109353E+01 0.126164E+01 0.127019E+01
23.578670 0.108782E+01 0.125963E+01 0.126735E+01
23.605890 0.108354E+01 0.125759E+01 0.126386E+01
23.633100 0.108068E+01 0.125538E+01 0.125988E+01
23.660310 0.107927E+01 0.125300E+01 0.125583E+01
23.687520 0.107927E+01 0.125055E+01 0.125224E+01
23.714730 0.108043E+01 0.124783E+01 0.124948E+01
23.741940 0.108220E+01 0.124437E+01 0.124758E+01
23.769150 0.108376E+01 0.123981E+01 0.124613E+01
23.796370 0.108431E+01 0.123415E+01 0.124465E+01
23.823580 0.108337E+01 0.122765E+01 0.124290E+01
23.850790 0.108101E+01 0.122073E+01 0.124109E+01
23.878000 0.107770E+01 0.121391E+01 0.123960E+01
23.905210 0.107398E+01 0.120761E+01 0.123864E+01
23.932420 0.107026E+01 0.120202E+01 0.123795E+01
23.959630 0.106669E+01 0.119710E+01 0.123705E+01
23.986840 0.106314E+01 0.119261E+01 0.123543E+01
24.014060 0.105923E+01 0.118820E+01 0.123273E+01
24.041270 0.105464E+01 0.118374E+01 0.122887E+01
24.068480 0.104951E+01 0.117940E+01 0.122408E+01
24.095690 0.104429E+01 0.117540E+01 0.121870E+01
24.122900 0.103930E+01 0.117188E+01 0.121297E+01
24.150110 0.103445E+01 0.116885E+01 0.120708E+01
24.177320 0.102943E+01 0.116625E+01 0.120115E+01
24.204540 0.102413E+01 0.116387E+01 0.119518E+01
24.231750 0.101863E+01 0.116135E+01 0.118906E+01
24.258960 0.101288E+01 0.115837E+01 0.118273E+01
24.286170 0.100672E+01 0.115493E+01 0.117632E+01
24.313380 0.100019E+01 0.115147E+01 0.117028E+01
24.340590 0.993697E+00 0.114871E+01 0.116529E+01
24.367800 0.987709E+00 0.114713E+01 0.116189E+01
24.395020 0.982285E+00 0.114652E+01 0.116000E+01
24.422230 0.977085E+00 0.114610E+01 0.115908E+01
24.449440 0.971864E+00 0.114515E+01 0.115860E+01
24.476650 0.966782E+00 0.114340E+01 0.115819E+01
24.503860 0.962046E+00 0.114100E+01 0.115757E+01
24.531070 0.957566E+00 0.113820E+01 0.115663E+01
24.558280 0.953067E+00 0.113515E+01 0.115533E+01
24.585500 0.948265E+00 0.113184E+01 0.115363E+01
24.612710 0.943036E+00 0.112833E+01 0.115157E+01
24.639920 0.937570E+00 0.112498E+01 0.114948E+01
24.667130 0.932194E+00 0.112208E+01 0.114772E+01
24.694340 0.927005E+00 0.111952E+01 0.114637E+01
24.721550 0.921917E+00 0.111690E+01 0.114532E+01
24.748760 0.916887E+00 0.111402E+01 0.114461E+01
24.775980 0.911924E+00 0.111100E+01 0.114433E+01
24.803190 0.907005E+00 0.110800E+01 0.114436E+01
24.830400 0.901993E+00 0.110511E+01 0.114431E+01
24.857610 0.896648E+00 0.110234E+01 0.114377E+01
24.884820 0.890786E+00 0.109965E+01 0.114244E+01
24.912030 0.884472E+00 0.109696E+01 0.114028E+01
24.939240 0.878041E+00 0.109437E+01 0.113759E+01
24.966460 0.871866E+00 0.109220E+01 0.113479E+01
24.993670 0.866090E+00 0.109090E+01 0.113221E+01
25.020880 0.860498E+00 0.109079E+01 0.112995E+01
25.048090 0.854618E+00 0.109183E+01 0.112796E+01
25.075300 0.848018E+00 0.109354E+01 0.112616E+01
25.102510 0.840555E+00 0.109531E+01 0.112447E+01
25.129720 0.832491E+00 0.109674E+01 0.112287E+01
25.156930 0.824403E+00 0.109779E+01 0.112126E+01
25.184150 0.816786E+00 0.109860E+01 0.111940E+01
25.211360 0.809688E+00 0.109928E+01 0.111690E+01
25.238570 0.802844E+00 0.109992E+01 0.111373E+01
25.265780 0.796041E+00 0.110063E+01 0.111039E+01
25.292990 0.789122E+00 0.110132E+01 0.110758E+01
25.320200 0.781846E+00 0.110143E+01 0.110579E+01
25.347410 0.774058E+00 0.110027E+01 0.110503E+01
25.374630 0.765918E+00 0.109744E+01 0.110497E+01
25.401840 0.757822E+00 0.109311E+01 0.110507E+01
25.429050 0.750104E+00 0.108784E+01 0.110471E+01
25.456260 0.742926E+00 0.108223E+01 0.110333E+01
25.483470 0.736398E+00 0.107675E+01 0.110072E+01
25.510680 0.730603E+00 0.107161E+01 0.109715E+01
25.537890 0.725466E+00 0.106682E+01 0.109317E+01
25.565110 0.720693E+00 0.106238E+01 0.108928E+01
25.592320 0.715877E+00 0.105837E+01 0.108561E+01
25.619530 0.710674E+00 0.105501E+01 0.108195E+01
25.646740 0.704982E+00 0.105249E+01 0.107790E+01
25.673950 0.698973E+00 0.105097E+01 0.107329E+01
25.701160 0.693022E+00 0.105044E+01 0.106833E+01
25.728370 0.687563E+00 0.105069E+01 0.106352E+01
25.755590 0.682805E+00 0.105130E+01 0.105939E+01
25.782800 0.678598E+00 0.105181E+01 0.105615E+01
25.810010 0.674629E+00 0.105183E+01 0.105361E+01
25.837220 0.670735E+00 0.105125E+01 0.105134E+01
25.864430 0.667028E+00 0.105033E+01 0.104904E+01
25.891640 0.663699E+00 0.104945E+01 0.104664E+01
25.918850 0.660771E+00 0.104881E+01 0.104404E+01
25.946070 0.658142E+00 0.104836E+01 0.104111E+01
25.973280 0.655744E+00 0.104794E+01 0.103769E+01
