#                                                                                
# Lorentzian broadening with gamma= 0.100000  [eV]
# Im(epsilon) shifted by   0.0000   [eV]
# No intraband contributions added
#
# Energy [eV] Re_eps_xx     Im_eps_xx     Re_eps_yy     Im_eps_yy
#
   0.013610  0.597200E+01  0.396429E-01  0.590419E+01  0.379282E-01
   0.040820  0.597222E+01  0.400545E-01  0.590439E+01  0.383074E-01
   0.068030  0.597266E+01  0.404732E-01  0.590480E+01  0.386929E-01
   0.095240  0.597332E+01  0.408993E-01  0.590540E+01  0.390849E-01
   0.122450  0.597420E+01  0.413328E-01  0.590622E+01  0.394835E-01
   0.149660  0.597530E+01  0.417740E-01  0.590723E+01  0.398889E-01
   0.176870  0.597663E+01  0.422231E-01  0.590845E+01  0.403012E-01
   0.204090  0.597817E+01  0.426804E-01  0.590987E+01  0.407209E-01
   0.231300  0.597994E+01  0.431458E-01  0.591150E+01  0.411476E-01
   0.258510  0.598193E+01  0.436198E-01  0.591334E+01  0.415818E-01
   0.285720  0.598414E+01  0.441025E-01  0.591538E+01  0.420237E-01
   0.312930  0.598658E+01  0.445942E-01  0.591762E+01  0.424735E-01
   0.340140  0.598924E+01  0.450950E-01  0.592008E+01  0.429314E-01
   0.367350  0.599213E+01  0.456054E-01  0.592274E+01  0.433975E-01
   0.394570  0.599525E+01  0.461256E-01  0.592561E+01  0.438723E-01
   0.421780  0.599860E+01  0.466557E-01  0.592870E+01  0.443557E-01
   0.448990  0.600218E+01  0.471960E-01  0.593200E+01  0.448480E-01
   0.476200  0.600599E+01  0.477469E-01  0.593550E+01  0.453496E-01
   0.503410  0.601004E+01  0.483086E-01  0.593923E+01  0.458606E-01
   0.530620  0.601432E+01  0.488816E-01  0.594317E+01  0.463814E-01
   0.557830  0.601884E+01  0.494660E-01  0.594733E+01  0.469121E-01
   0.585040  0.602360E+01  0.500623E-01  0.595171E+01  0.474532E-01
   0.612260  0.602861E+01  0.506710E-01  0.595631E+01  0.480050E-01
   0.639470  0.603385E+01  0.512921E-01  0.596113E+01  0.485675E-01
   0.666680  0.603934E+01  0.519261E-01  0.596618E+01  0.491411E-01
   0.693890  0.604509E+01  0.525734E-01  0.597146E+01  0.497264E-01
   0.721100  0.605108E+01  0.532345E-01  0.597696E+01  0.503234E-01
   0.748310  0.605732E+01  0.539098E-01  0.598270E+01  0.509328E-01
   0.775520  0.606383E+01  0.545998E-01  0.598867E+01  0.515547E-01
   0.802740  0.607059E+01  0.553051E-01  0.599489E+01  0.521898E-01
   0.829950  0.607762E+01  0.560258E-01  0.600133E+01  0.528381E-01
   0.857160  0.608491E+01  0.567625E-01  0.600802E+01  0.535002E-01
   0.884370  0.609248E+01  0.575160E-01  0.601496E+01  0.541766E-01
   0.911580  0.610031E+01  0.582866E-01  0.602214E+01  0.548677E-01
   0.938790  0.610843E+01  0.590750E-01  0.602958E+01  0.555739E-01
   0.966000  0.611682E+01  0.598818E-01  0.603727E+01  0.562959E-01
   0.993220  0.612551E+01  0.607080E-01  0.604522E+01  0.570344E-01
   1.020430  0.613448E+01  0.615536E-01  0.605343E+01  0.577893E-01
   1.047640  0.614374E+01  0.624197E-01  0.606191E+01  0.585616E-01
   1.074850  0.615331E+01  0.633069E-01  0.607066E+01  0.593519E-01
   1.102060  0.616318E+01  0.642160E-01  0.607968E+01  0.601607E-01
   1.129270  0.617336E+01  0.651479E-01  0.608898E+01  0.609888E-01
   1.156480  0.618385E+01  0.661035E-01  0.609856E+01  0.618368E-01
   1.183700  0.619467E+01  0.670839E-01  0.610843E+01  0.627058E-01
   1.210910  0.620581E+01  0.680894E-01  0.611860E+01  0.635959E-01
   1.238120  0.621729E+01  0.691215E-01  0.612906E+01  0.645083E-01
   1.265330  0.622910E+01  0.701810E-01  0.613982E+01  0.654438E-01
   1.292540  0.624126E+01  0.712693E-01  0.615090E+01  0.664033E-01
   1.319750  0.625378E+01  0.723874E-01  0.616229E+01  0.673878E-01
   1.346960  0.626666E+01  0.735366E-01  0.617400E+01  0.683982E-01
   1.374180  0.627991E+01  0.747186E-01  0.618604E+01  0.694361E-01
   1.401390  0.629353E+01  0.759341E-01  0.619841E+01  0.705017E-01
   1.428600  0.630754E+01  0.771848E-01  0.621113E+01  0.715967E-01
   1.455810  0.632194E+01  0.784725E-01  0.622419E+01  0.727224E-01
   1.483020  0.633675E+01  0.797988E-01  0.623761E+01  0.738800E-01
   1.510230  0.635197E+01  0.811654E-01  0.625140E+01  0.750710E-01
   1.537440  0.636761E+01  0.825744E-01  0.626556E+01  0.762970E-01
   1.564660  0.638370E+01  0.840282E-01  0.628011E+01  0.775600E-01
   1.591870  0.640023E+01  0.855281E-01  0.629505E+01  0.788608E-01
   1.619080  0.641722E+01  0.870768E-01  0.631038E+01  0.802019E-01
   1.646290  0.643469E+01  0.886769E-01  0.632614E+01  0.815852E-01
   1.673500  0.645263E+01  0.903310E-01  0.634231E+01  0.830128E-01
   1.700710  0.647108E+01  0.920422E-01  0.635892E+01  0.844871E-01
   1.727920  0.649005E+01  0.938135E-01  0.637598E+01  0.860105E-01
   1.755130  0.650954E+01  0.956482E-01  0.639350E+01  0.875859E-01
   1.782350  0.652960E+01  0.975509E-01  0.641150E+01  0.892167E-01
   1.809560  0.655021E+01  0.995240E-01  0.642999E+01  0.909049E-01
   1.836770  0.657140E+01  0.101573E+00  0.644898E+01  0.926547E-01
   1.863980  0.659320E+01  0.103701E+00  0.646849E+01  0.944697E-01
   1.891190  0.661563E+01  0.105915E+00  0.648854E+01  0.963543E-01
   1.918400  0.663871E+01  0.108220E+00  0.650914E+01  0.983129E-01
   1.945610  0.666246E+01  0.110623E+00  0.653032E+01  0.100351E+00
   1.972830  0.668692E+01  0.113130E+00  0.655211E+01  0.102474E+00
   2.000040  0.671210E+01  0.115748E+00  0.657451E+01  0.104688E+00
   2.027250  0.673803E+01  0.118486E+00  0.659756E+01  0.107000E+00
   2.054460  0.676476E+01  0.121355E+00  0.662127E+01  0.109419E+00
   2.081670  0.679231E+01  0.124363E+00  0.664569E+01  0.111953E+00
   2.108880  0.682072E+01  0.127524E+00  0.667083E+01  0.114612E+00
   2.136090  0.685004E+01  0.130851E+00  0.669674E+01  0.117410E+00
   2.163310  0.688031E+01  0.134361E+00  0.672345E+01  0.120360E+00
   2.190520  0.691157E+01  0.138070E+00  0.675099E+01  0.123478E+00
   2.217730  0.694387E+01  0.142001E+00  0.677942E+01  0.126784E+00
   2.244940  0.697728E+01  0.146178E+00  0.680877E+01  0.130303E+00
   2.272150  0.701186E+01  0.150631E+00  0.683910E+01  0.134063E+00
   2.299360  0.704767E+01  0.155397E+00  0.687047E+01  0.138102E+00
   2.326570  0.708479E+01  0.160521E+00  0.690294E+01  0.142468E+00
   2.353790  0.712333E+01  0.166059E+00  0.693659E+01  0.147224E+00
   2.381000  0.716333E+01  0.172080E+00  0.697146E+01  0.152449E+00
   2.408210  0.720492E+01  0.178678E+00  0.700764E+01  0.158257E+00
   2.435420  0.724819E+01  0.185974E+00  0.704518E+01  0.164797E+00
   2.462630  0.729320E+01  0.194122E+00  0.708407E+01  0.172266E+00
   2.489840  0.734000E+01  0.203305E+00  0.712422E+01  0.180888E+00
   2.517050  0.738855E+01  0.213689E+00  0.716535E+01  0.190816E+00
   2.544270  0.743877E+01  0.225341E+00  0.720711E+01  0.201945E+00
   2.571480  0.749068E+01  0.238185E+00  0.724932E+01  0.213792E+00
   2.598690  0.754457E+01  0.252234E+00  0.729237E+01  0.225888E+00
   2.625900  0.760077E+01  0.267750E+00  0.733691E+01  0.238169E+00
   2.653110  0.765954E+01  0.285176E+00  0.738360E+01  0.250939E+00
   2.680320  0.772103E+01  0.305182E+00  0.743301E+01  0.264986E+00
   2.707530  0.778506E+01  0.328680E+00  0.748510E+01  0.281564E+00
   2.734750  0.785092E+01  0.356523E+00  0.753895E+01  0.301655E+00
   2.761960  0.791733E+01  0.389195E+00  0.759324E+01  0.325450E+00
   2.789170  0.798262E+01  0.426329E+00  0.764685E+01  0.352437E+00
   2.816380  0.804561E+01  0.466116E+00  0.769913E+01  0.381473E+00
   2.843590  0.810709E+01  0.506136E+00  0.775044E+01  0.411194E+00
   2.870800  0.816975E+01  0.545466E+00  0.780216E+01  0.440944E+00
   2.898010  0.823605E+01  0.585895E+00  0.785575E+01  0.471571E+00
   2.925220  0.830599E+01  0.630213E+00  0.791134E+01  0.504869E+00
   2.952440  0.837807E+01  0.679849E+00  0.796752E+01  0.542212E+00
   2.979650  0.845105E+01  0.735065E+00  0.802193E+01  0.583329E+00
   3.006860  0.852403E+01  0.796095E+00  0.807306E+01  0.625955E+00
   3.034070  0.859600E+01  0.862877E+00  0.812177E+01  0.666962E+00
   3.061280  0.866635E+01  0.935107E+00  0.817146E+01  0.704783E+00
   3.088490  0.873445E+01  0.101301E+01  0.822576E+01  0.741188E+00
   3.115700  0.879861E+01  0.109640E+01  0.828562E+01  0.779910E+00
   3.142920  0.885747E+01  0.118337E+01  0.834942E+01  0.823663E+00
   3.170130  0.891156E+01  0.127140E+01  0.841498E+01  0.873339E+00
   3.197340  0.896297E+01  0.135933E+01  0.848048E+01  0.928793E+00
   3.224550  0.901388E+01  0.144769E+01  0.854470E+01  0.989058E+00
   3.251760  0.906576E+01  0.153837E+01  0.860767E+01  0.105295E+01
   3.278970  0.911852E+01  0.163464E+01  0.867020E+01  0.112059E+01
   3.306180  0.916843E+01  0.173928E+01  0.873175E+01  0.119314E+01
   3.333400  0.921025E+01  0.185034E+01  0.879055E+01  0.127034E+01
   3.360610  0.924305E+01  0.196220E+01  0.884617E+01  0.135032E+01
   3.387820  0.927033E+01  0.207209E+01  0.889998E+01  0.143236E+01
   3.415030  0.929463E+01  0.218098E+01  0.895284E+01  0.151752E+01
   3.442240  0.931636E+01  0.228972E+01  0.900399E+01  0.160705E+01
   3.469450  0.933654E+01  0.239874E+01  0.905198E+01  0.170085E+01
   3.496660  0.935579E+01  0.251073E+01  0.909641E+01  0.179831E+01
   3.523880  0.937030E+01  0.262863E+01  0.913666E+01  0.189983E+01
   3.551090  0.937419E+01  0.274921E+01  0.917066E+01  0.200468E+01
   3.578300  0.936753E+01  0.286496E+01  0.919751E+01  0.211035E+01
   3.605510  0.935639E+01  0.297243E+01  0.921809E+01  0.221467E+01
   3.632720  0.934500E+01  0.307402E+01  0.923342E+01  0.231636E+01
   3.659930  0.933315E+01  0.317127E+01  0.924467E+01  0.241365E+01
   3.687140  0.932239E+01  0.326239E+01  0.925494E+01  0.250472E+01
   3.714360  0.931790E+01  0.334868E+01  0.926927E+01  0.259043E+01
   3.741570  0.932203E+01  0.343619E+01  0.929142E+01  0.267566E+01
   3.768780  0.933178E+01  0.353038E+01  0.932058E+01  0.276739E+01
   3.795990  0.934248E+01  0.363228E+01  0.935108E+01  0.287005E+01
   3.823200  0.935212E+01  0.374033E+01  0.937621E+01  0.298291E+01
   3.850410  0.936099E+01  0.385461E+01  0.939200E+01  0.310147E+01
   3.877620  0.936802E+01  0.397743E+01  0.939853E+01  0.322076E+01
   3.904840  0.936904E+01  0.411041E+01  0.939815E+01  0.333807E+01
   3.932050  0.935879E+01  0.425138E+01  0.939323E+01  0.345242E+01
   3.959260  0.933454E+01  0.439505E+01  0.938581E+01  0.356395E+01
   3.986470  0.929763E+01  0.453611E+01  0.937744E+01  0.367368E+01
   4.013680  0.925139E+01  0.467220E+01  0.936859E+01  0.378291E+01
   4.040890  0.919798E+01  0.480335E+01  0.935941E+01  0.389232E+01
   4.068100  0.913774E+01  0.492918E+01  0.935068E+01  0.400301E+01
   4.095310  0.907163E+01  0.504749E+01  0.934223E+01  0.411755E+01
   4.122530  0.900347E+01  0.515661E+01  0.933151E+01  0.423834E+01
   4.149740  0.893820E+01  0.525854E+01  0.931444E+01  0.436540E+01
   4.176950  0.887745E+01  0.535869E+01  0.928752E+01  0.449619E+01
   4.204160  0.881811E+01  0.546127E+01  0.924912E+01  0.462639E+01
   4.231370  0.875604E+01  0.556602E+01  0.920047E+01  0.475092E+01
   4.258580  0.869006E+01  0.567023E+01  0.914629E+01  0.486646E+01
   4.285790  0.862194E+01  0.577267E+01  0.909234E+01  0.497397E+01
   4.313010  0.855289E+01  0.587538E+01  0.904165E+01  0.507817E+01
   4.340220  0.848085E+01  0.598049E+01  0.899265E+01  0.518379E+01
   4.367430  0.840254E+01  0.608751E+01  0.894125E+01  0.529195E+01
   4.394640  0.831540E+01  0.619408E+01  0.888543E+01  0.540035E+01
   4.421850  0.821823E+01  0.629568E+01  0.882644E+01  0.550773E+01
   4.449060  0.811422E+01  0.638689E+01  0.876451E+01  0.561587E+01
   4.476270  0.801043E+01  0.646711E+01  0.869649E+01  0.572552E+01
   4.503490  0.791073E+01  0.654155E+01  0.861948E+01  0.583353E+01
   4.530700  0.781350E+01  0.661475E+01  0.853439E+01  0.593556E+01
   4.557910  0.771551E+01  0.668785E+01  0.844368E+01  0.602988E+01
   4.585120  0.761461E+01  0.675965E+01  0.834881E+01  0.611527E+01
   4.612330  0.751019E+01  0.682852E+01  0.825251E+01  0.618985E+01
   4.639540  0.740229E+01  0.689294E+01  0.815907E+01  0.625354E+01
   4.666750  0.729176E+01  0.695120E+01  0.807251E+01  0.630878E+01
   4.693970  0.718052E+01  0.700215E+01  0.799481E+01  0.635978E+01
   4.721180  0.707143E+01  0.704582E+01  0.792577E+01  0.641052E+01
   4.748390  0.696705E+01  0.708425E+01  0.786392E+01  0.646401E+01
   4.775600  0.686815E+01  0.712116E+01  0.780769E+01  0.652230E+01
   4.802810  0.677255E+01  0.715997E+01  0.775572E+01  0.658774E+01
   4.830020  0.667633E+01  0.720134E+01  0.770516E+01  0.666379E+01
   4.857230  0.657695E+01  0.724298E+01  0.764944E+01  0.675276E+01
   4.884450  0.647487E+01  0.728288E+01  0.758014E+01  0.685170E+01
   4.911660  0.637015E+01  0.732170E+01  0.749242E+01  0.695186E+01
   4.938870  0.625945E+01  0.735865E+01  0.738834E+01  0.704366E+01
   4.966080  0.614097E+01  0.738774E+01  0.727503E+01  0.712200E+01
   4.993290  0.601987E+01  0.740223E+01  0.715922E+01  0.718799E+01
   5.020500  0.590590E+01  0.740190E+01  0.704253E+01  0.724523E+01
   5.047710  0.580611E+01  0.739394E+01  0.692337E+01  0.729348E+01
   5.074930  0.572051E+01  0.738862E+01  0.680332E+01  0.732914E+01
   5.102140  0.564158E+01  0.739325E+01  0.668829E+01  0.735069E+01
   5.129350  0.555925E+01  0.740670E+01  0.658444E+01  0.736125E+01
   5.156560  0.546887E+01  0.742166E+01  0.649515E+01  0.736712E+01
   5.183770  0.537191E+01  0.743181E+01  0.642008E+01  0.737509E+01
   5.210980  0.527191E+01  0.743351E+01  0.635638E+01  0.739088E+01
   5.238190  0.517388E+01  0.742539E+01  0.629890E+01  0.741962E+01
   5.265400  0.508251E+01  0.740988E+01  0.623818E+01  0.746333E+01
   5.292620  0.499926E+01  0.739117E+01  0.616471E+01  0.751562E+01
   5.319830  0.492335E+01  0.737251E+01  0.607788E+01  0.756512E+01
   5.347040  0.485276E+01  0.735614E+01  0.598528E+01  0.760615E+01
   5.374250  0.478450E+01  0.734246E+01  0.589306E+01  0.764144E+01
   5.401460  0.471686E+01  0.732920E+01  0.580135E+01  0.767511E+01
   5.428670  0.465163E+01  0.731446E+01  0.570777E+01  0.770870E+01
   5.455880  0.459120E+01  0.730009E+01  0.560935E+01  0.774142E+01
   5.483100  0.453411E+01  0.728973E+01  0.550387E+01  0.776953E+01
   5.510310  0.447602E+01  0.728340E+01  0.539334E+01  0.778755E+01
   5.537520  0.441511E+01  0.727766E+01  0.528375E+01  0.779342E+01
   5.564730  0.435241E+01  0.727021E+01  0.517972E+01  0.779023E+01
   5.591940  0.428860E+01  0.725965E+01  0.508129E+01  0.778147E+01
   5.619150  0.422559E+01  0.724366E+01  0.498741E+01  0.776708E+01
   5.646360  0.416797E+01  0.722194E+01  0.490023E+01  0.774581E+01
   5.673580  0.411967E+01  0.719857E+01  0.482390E+01  0.771974E+01
   5.700790  0.407983E+01  0.717988E+01  0.475973E+01  0.769458E+01
   5.728000  0.404257E+01  0.716862E+01  0.470435E+01  0.767485E+01
   5.755210  0.400324E+01  0.716113E+01  0.465331E+01  0.766092E+01
   5.782420  0.396352E+01  0.715266E+01  0.460476E+01  0.765071E+01
   5.809630  0.392782E+01  0.714357E+01  0.455936E+01  0.764310E+01
   5.836840  0.389711E+01  0.713792E+01  0.451787E+01  0.763887E+01
   5.864060  0.386831E+01  0.713809E+01  0.447985E+01  0.763943E+01
   5.891270  0.383834E+01  0.714245E+01  0.444405E+01  0.764578E+01
   5.918480  0.380790E+01  0.714775E+01  0.440894E+01  0.765837E+01
   5.945690  0.378080E+01  0.715385E+01  0.437266E+01  0.767716E+01
   5.972900  0.375950E+01  0.716514E+01  0.433348E+01  0.770098E+01
   6.000110  0.374140E+01  0.718744E+01  0.429085E+01  0.772785E+01
   6.027320  0.371962E+01  0.722273E+01  0.424588E+01  0.775631E+01
   6.054540  0.368844E+01  0.726766E+01  0.420029E+01  0.778695E+01
   6.081750  0.364625E+01  0.731747E+01  0.415395E+01  0.782204E+01
   6.108960  0.359345E+01  0.736926E+01  0.410465E+01  0.786292E+01
   6.136170  0.353006E+01  0.742137E+01  0.404930E+01  0.790969E+01
   6.163380  0.345525E+01  0.747194E+01  0.398422E+01  0.795975E+01
   6.190590  0.336792E+01  0.751739E+01  0.390890E+01  0.800767E+01
   6.217800  0.326939E+01  0.755195E+01  0.382716E+01  0.805011E+01
   6.245020  0.316553E+01  0.757066E+01  0.374252E+01  0.808781E+01
   6.272230  0.306556E+01  0.757372E+01  0.365629E+01  0.812278E+01
   6.299440  0.297579E+01  0.756848E+01  0.356782E+01  0.815708E+01
   6.326650  0.289414E+01  0.756371E+01  0.347446E+01  0.819161E+01
   6.353860  0.281360E+01  0.756140E+01  0.337278E+01  0.822423E+01
   6.381070  0.273091E+01  0.755731E+01  0.326157E+01  0.824981E+01
   6.408280  0.264818E+01  0.754807E+01  0.314350E+01  0.826243E+01
   6.435490  0.256885E+01  0.753374E+01  0.302565E+01  0.825829E+01
   6.462710  0.249520E+01  0.751709E+01  0.291699E+01  0.823953E+01
   6.489920  0.242642E+01  0.750198E+01  0.282246E+01  0.821395E+01
   6.517130  0.235893E+01  0.748976E+01  0.274084E+01  0.818873E+01
   6.544340  0.229022E+01  0.747863E+01  0.266937E+01  0.816805E+01
   6.571550  0.221986E+01  0.746626E+01  0.260459E+01  0.815560E+01
   6.598760  0.214910E+01  0.745006E+01  0.254071E+01  0.815283E+01
   6.625970  0.208236E+01  0.742930E+01  0.247297E+01  0.815751E+01
   6.653190  0.202332E+01  0.740902E+01  0.239882E+01  0.816662E+01
   6.680400  0.196857E+01  0.739618E+01  0.231641E+01  0.817656E+01
   6.707610  0.190929E+01  0.739117E+01  0.222591E+01  0.818180E+01
   6.734820  0.184056E+01  0.738618E+01  0.213267E+01  0.817796E+01
   6.762030  0.176627E+01  0.737324E+01  0.204347E+01  0.816721E+01
   6.789240  0.169441E+01  0.735119E+01  0.195963E+01  0.815591E+01
   6.816450  0.162975E+01  0.732492E+01  0.187673E+01  0.814752E+01
   6.843670  0.157185E+01  0.729956E+01  0.179048E+01  0.813966E+01
   6.870880  0.151816E+01  0.727777E+01  0.170140E+01  0.812801E+01
   6.898090  0.146605E+01  0.726035E+01  0.161334E+01  0.811132E+01
   6.925300  0.141285E+01  0.724699E+01  0.152856E+01  0.809223E+01
   6.952510  0.135657E+01  0.723546E+01  0.144603E+01  0.807275E+01
   6.979720  0.129772E+01  0.722294E+01  0.136497E+01  0.805277E+01
   7.006930  0.123874E+01  0.720828E+01  0.128606E+01  0.803256E+01
   7.034150  0.118196E+01  0.719311E+01  0.120926E+01  0.801412E+01
   7.061360  0.112688E+01  0.718071E+01  0.113208E+01  0.799889E+01
   7.088570  0.106976E+01  0.717211E+01  0.105185E+01  0.798554E+01
   7.115780  0.100798E+01  0.716401E+01  0.967771E+00  0.797161E+01
   7.142990  0.943788E+00  0.715288E+01  0.880894E+00  0.795495E+01
   7.170200  0.880894E+00  0.714002E+01  0.793302E+00  0.793536E+01
   7.197410  0.818775E+00  0.712931E+01  0.705530E+00  0.791436E+01
   7.224630  0.753132E+00  0.712142E+01  0.616046E+00  0.789241E+01
   7.251840  0.681602E+00  0.711226E+01  0.524084E+00  0.786798E+01
   7.279050  0.606842E+00  0.709801E+01  0.430118E+00  0.783974E+01
   7.306260  0.532860E+00  0.707915E+01  0.334832E+00  0.780629E+01
   7.333470  0.461176E+00  0.705868E+01  0.240692E+00  0.776612E+01
   7.360680  0.390526E+00  0.703959E+01  0.151515E+00  0.772053E+01
   7.387890  0.317146E+00  0.702309E+01  0.687818E-01  0.767387E+01
   7.415110  0.236662E+00  0.700606E+01 -0.101301E-01  0.763002E+01
   7.442320  0.149405E+00  0.698174E+01 -0.895598E-01  0.758924E+01
   7.469530  0.618491E-01  0.694624E+01 -0.171970E+00  0.754866E+01
   7.496740 -0.192083E-01  0.690262E+01 -0.257087E+00  0.750534E+01
   7.523950 -0.922817E-01  0.685742E+01 -0.343232E+00  0.745740E+01
   7.551160 -0.160844E+00  0.681500E+01 -0.427958E+00  0.740433E+01
   7.578370 -0.229307E+00  0.677562E+01 -0.509066E+00  0.734752E+01
   7.605580 -0.300442E+00  0.673693E+01 -0.586371E+00  0.728942E+01
   7.632800 -0.374602E+00  0.669550E+01 -0.661572E+00  0.723104E+01
   7.660010 -0.449369E+00  0.664911E+01 -0.735696E+00  0.717147E+01
   7.687220 -0.522098E+00  0.659819E+01 -0.808059E+00  0.710940E+01
   7.714430 -0.591736E+00  0.654439E+01 -0.876504E+00  0.704506E+01
   7.741640 -0.658430E+00  0.648902E+01 -0.939807E+00  0.698127E+01
   7.768850 -0.722753E+00  0.643284E+01 -0.100001E+01  0.692121E+01
   7.796060 -0.785673E+00  0.637613E+01 -0.106119E+01  0.686526E+01
   7.823280 -0.848030E+00  0.631799E+01 -0.112640E+01  0.681056E+01
   7.850490 -0.909257E+00  0.625719E+01 -0.119568E+01  0.675323E+01
   7.877700 -0.967891E+00  0.619329E+01 -0.126680E+01  0.669052E+01
   7.904910 -0.102223E+01  0.612721E+01 -0.133666E+01  0.662165E+01
   7.932120 -0.107184E+01  0.606118E+01 -0.140260E+01  0.654771E+01
   7.959330 -0.111806E+01  0.599685E+01 -0.146322E+01  0.647058E+01
   7.986540 -0.116260E+01  0.593462E+01 -0.151803E+01  0.639223E+01
   8.013760 -0.120736E+01  0.587394E+01 -0.156750E+01  0.631462E+01
   8.040970 -0.125365E+01  0.581245E+01 -0.161305E+01  0.623886E+01
   8.068180 -0.129994E+01  0.574691E+01 -0.165543E+01  0.616456E+01
   8.095390 -0.134201E+01  0.567654E+01 -0.169372E+01  0.609222E+01
   8.122600 -0.137608E+01  0.560445E+01 -0.172808E+01  0.602483E+01
   8.149810 -0.140211E+01  0.553597E+01 -0.176242E+01  0.596497E+01
   8.177020 -0.142383E+01  0.547427E+01 -0.180205E+01  0.591098E+01
   8.204240 -0.144477E+01  0.541904E+01 -0.184929E+01  0.585786E+01
   8.231450 -0.146649E+01  0.536938E+01 -0.190253E+01  0.580142E+01
   8.258660 -0.149033E+01  0.532510E+01 -0.195944E+01  0.574009E+01
   8.285870 -0.151849E+01  0.528606E+01 -0.201877E+01  0.567297E+01
   8.313080 -0.155432E+01  0.525063E+01 -0.207885E+01  0.559834E+01
   8.340290 -0.160046E+01  0.521403E+01 -0.213616E+01  0.551518E+01
   8.367500 -0.165542E+01  0.516949E+01 -0.218659E+01  0.542531E+01
   8.394720 -0.171274E+01  0.511275E+01 -0.222831E+01  0.533286E+01
   8.421930 -0.176476E+01  0.504547E+01 -0.226253E+01  0.524189E+01
   8.449140 -0.180755E+01  0.497383E+01 -0.229233E+01  0.515426E+01
   8.476350 -0.184298E+01  0.490449E+01 -0.232083E+01  0.506930E+01
   8.503560 -0.187697E+01  0.483950E+01 -0.234922E+01  0.498459E+01
   8.530770 -0.191356E+01  0.477520E+01 -0.237645E+01  0.489811E+01
   8.557980 -0.195133E+01  0.470718E+01 -0.240061E+01  0.480940E+01
   8.585200 -0.198640E+01  0.463486E+01 -0.241985E+01  0.471929E+01
   8.612410 -0.201657E+01  0.456106E+01 -0.243315E+01  0.463002E+01
   8.639620 -0.204303E+01  0.448888E+01 -0.244146E+01  0.454412E+01
   8.666830 -0.206893E+01  0.441864E+01 -0.244713E+01  0.446241E+01
   8.694040 -0.209573E+01  0.434797E+01 -0.245153E+01  0.438424E+01
   8.721250 -0.212225E+01  0.427474E+01 -0.245530E+01  0.430947E+01
   8.748460 -0.214636E+01  0.419882E+01 -0.245986E+01  0.423792E+01
   8.775670 -0.216700E+01  0.412150E+01 -0.246674E+01  0.416798E+01
   8.802890 -0.218429E+01  0.404389E+01 -0.247569E+01  0.409686E+01
   8.830100 -0.219860E+01  0.396658E+01 -0.248419E+01  0.402312E+01
   8.857310 -0.221027E+01  0.388986E+01 -0.248982E+01  0.394787E+01
   8.884520 -0.221972E+01  0.381395E+01 -0.249235E+01  0.387326E+01
   8.911730 -0.222747E+01  0.373869E+01 -0.249286E+01  0.380004E+01
   8.938940 -0.223345E+01  0.366344E+01 -0.249158E+01  0.372812E+01
   8.966150 -0.223672E+01  0.358823E+01 -0.248868E+01  0.365828E+01
   8.993370 -0.223705E+01  0.351429E+01 -0.248550E+01  0.359095E+01
   9.020580 -0.223556E+01  0.344246E+01 -0.248336E+01  0.352519E+01
   9.047790 -0.223342E+01  0.337198E+01 -0.248243E+01  0.345940E+01
   9.075000 -0.223026E+01  0.330163E+01 -0.248170E+01  0.339226E+01
   9.102210 -0.222471E+01  0.323158E+01 -0.247949E+01  0.332360E+01
   9.129420 -0.221657E+01  0.316336E+01 -0.247447E+01  0.325455E+01
   9.156630 -0.220706E+01  0.309792E+01 -0.246659E+01  0.318697E+01
   9.183850 -0.219773E+01  0.303501E+01 -0.245736E+01  0.312205E+01
   9.211060 -0.218968E+01  0.297353E+01 -0.244851E+01  0.305938E+01
   9.238270 -0.218314E+01  0.291155E+01 -0.244067E+01  0.299755E+01
   9.265480 -0.217674E+01  0.284723E+01 -0.243330E+01  0.293552E+01
   9.292690 -0.216789E+01  0.278024E+01 -0.242567E+01  0.287328E+01
   9.319900 -0.215453E+01  0.271231E+01 -0.241803E+01  0.281111E+01
   9.347110 -0.213637E+01  0.264584E+01 -0.241086E+01  0.274819E+01
   9.374330 -0.211440E+01  0.258270E+01 -0.240336E+01  0.268316E+01
   9.401540 -0.209033E+01  0.252391E+01 -0.239374E+01  0.261583E+01
   9.428750 -0.206592E+01  0.246938E+01 -0.238050E+01  0.254725E+01
   9.455960 -0.204251E+01  0.241821E+01 -0.236323E+01  0.247908E+01
   9.483170 -0.202053E+01  0.236903E+01 -0.234249E+01  0.241257E+01
   9.510380 -0.199939E+01  0.232092E+01 -0.231900E+01  0.234823E+01
   9.537590 -0.197857E+01  0.227400E+01 -0.229314E+01  0.228638E+01
   9.564810 -0.195822E+01  0.222840E+01 -0.226529E+01  0.222756E+01
   9.592020 -0.193843E+01  0.218401E+01 -0.223632E+01  0.217232E+01
   9.619230 -0.191928E+01  0.214105E+01 -0.220724E+01  0.212073E+01
   9.646440 -0.190168E+01  0.209962E+01 -0.217900E+01  0.207257E+01
   9.673650 -0.188662E+01  0.205856E+01 -0.215272E+01  0.202746E+01
   9.700860 -0.187371E+01  0.201612E+01 -0.212954E+01  0.198427E+01
   9.728070 -0.186165E+01  0.197161E+01 -0.210998E+01  0.194113E+01
   9.755290 -0.184955E+01  0.192491E+01 -0.209340E+01  0.189584E+01
   9.782500 -0.183646E+01  0.187600E+01 -0.207772E+01  0.184693E+01
   9.809710 -0.182141E+01  0.182531E+01 -0.206046E+01  0.179466E+01
   9.836920 -0.180379E+01  0.177362E+01 -0.204016E+01  0.174052E+01
   9.864130 -0.178347E+01  0.172172E+01 -0.201655E+01  0.168612E+01
   9.891340 -0.176047E+01  0.167012E+01 -0.199016E+01  0.163253E+01
   9.918550 -0.173462E+01  0.161929E+01 -0.196151E+01  0.158008E+01
   9.945760 -0.170586E+01  0.157014E+01 -0.193071E+01  0.152902E+01
   9.972980 -0.167478E+01  0.152366E+01 -0.189800E+01  0.147988E+01
