#                                                                                
# Lorentzian broadening with gamma= 0.100000  [eV]
# Im(epsilon) shifted by   0.0000   [eV]
# No intraband contributions added
#
# Energy Im_eps_xx Im_eps_yy Im_eps_zz
0.013610 0.341457E-01 0.341457E-01 0.310586E-01
0.040820 0.344957E-01 0.344957E-01 0.313563E-01
0.068030 0.348515E-01 0.348515E-01 0.316588E-01
0.095240 0.352133E-01 0.352133E-01 0.319661E-01
0.122450 0.355813E-01 0.355813E-01 0.322783E-01
0.149660 0.359555E-01 0.359555E-01 0.325955E-01
0.176870 0.363362E-01 0.363362E-01 0.329179E-01
0.204090 0.367235E-01 0.367235E-01 0.332456E-01
0.231300 0.371175E-01 0.371175E-01 0.335787E-01
0.258510 0.375184E-01 0.375184E-01 0.339172E-01
0.285720 0.379263E-01 0.379263E-01 0.342614E-01
0.312930 0.383415E-01 0.383415E-01 0.346114E-01
0.340140 0.387642E-01 0.387642E-01 0.349673E-01
0.367350 0.391944E-01 0.391944E-01 0.353292E-01
0.394570 0.396327E-01 0.396327E-01 0.356975E-01
0.421780 0.400788E-01 0.400788E-01 0.360720E-01
0.448990 0.405331E-01 0.405331E-01 0.364531E-01
0.476200 0.409959E-01 0.409959E-01 0.368408E-01
0.503410 0.414673E-01 0.414673E-01 0.372354E-01
0.530620 0.419477E-01 0.419477E-01 0.376370E-01
0.557830 0.424371E-01 0.424371E-01 0.380458E-01
0.585040 0.429360E-01 0.429360E-01 0.384620E-01
0.612260 0.434447E-01 0.434447E-01 0.388860E-01
0.639470 0.439631E-01 0.439631E-01 0.393175E-01
0.666680 0.444916E-01 0.444916E-01 0.397571E-01
0.693890 0.450307E-01 0.450307E-01 0.402049E-01
0.721100 0.455805E-01 0.455805E-01 0.406611E-01
0.748310 0.461413E-01 0.461413E-01 0.411259E-01
0.775520 0.467135E-01 0.467135E-01 0.415996E-01
0.802740 0.472977E-01 0.472977E-01 0.420827E-01
0.829950 0.478937E-01 0.478937E-01 0.425749E-01
0.857160 0.485021E-01 0.485021E-01 0.430768E-01
0.884370 0.491232E-01 0.491232E-01 0.435887E-01
0.911580 0.497575E-01 0.497575E-01 0.441107E-01
0.938790 0.504054E-01 0.504054E-01 0.446432E-01
0.966000 0.510672E-01 0.510672E-01 0.451866E-01
0.993220 0.517437E-01 0.517437E-01 0.457413E-01
1.020430 0.524348E-01 0.524348E-01 0.463072E-01
1.047640 0.531412E-01 0.531412E-01 0.468849E-01
1.074850 0.538634E-01 0.538634E-01 0.474748E-01
1.102060 0.546019E-01 0.546019E-01 0.480772E-01
1.129270 0.553573E-01 0.553573E-01 0.486925E-01
1.156480 0.561300E-01 0.561300E-01 0.493212E-01
1.183700 0.569210E-01 0.569210E-01 0.499638E-01
1.210910 0.577303E-01 0.577303E-01 0.506203E-01
1.238120 0.585588E-01 0.585588E-01 0.512915E-01
1.265330 0.594071E-01 0.594071E-01 0.519778E-01
1.292540 0.602760E-01 0.602760E-01 0.526796E-01
1.319750 0.611661E-01 0.611661E-01 0.533976E-01
1.346960 0.620782E-01 0.620782E-01 0.541323E-01
1.374180 0.630135E-01 0.630135E-01 0.548844E-01
1.401390 0.639720E-01 0.639720E-01 0.556540E-01
1.428600 0.649550E-01 0.649550E-01 0.564421E-01
1.455810 0.659634E-01 0.659634E-01 0.572492E-01
1.483020 0.669981E-01 0.669981E-01 0.580761E-01
1.510230 0.680602E-01 0.680602E-01 0.589234E-01
1.537440 0.691506E-01 0.691506E-01 0.597919E-01
1.564660 0.702709E-01 0.702709E-01 0.606827E-01
1.591870 0.714215E-01 0.714215E-01 0.615960E-01
1.619080 0.726040E-01 0.726040E-01 0.625329E-01
1.646290 0.738196E-01 0.738196E-01 0.634943E-01
1.673500 0.750697E-01 0.750697E-01 0.644812E-01
1.700710 0.763557E-01 0.763557E-01 0.654945E-01
1.727920 0.776792E-01 0.776792E-01 0.665354E-01
1.755130 0.790417E-01 0.790417E-01 0.676049E-01
1.782350 0.804456E-01 0.804456E-01 0.687045E-01
1.809560 0.818914E-01 0.818914E-01 0.698348E-01
1.836770 0.833816E-01 0.833816E-01 0.709973E-01
1.863980 0.849183E-01 0.849183E-01 0.721935E-01
1.891190 0.865036E-01 0.865036E-01 0.734247E-01
1.918400 0.881396E-01 0.881396E-01 0.746925E-01
1.945610 0.898290E-01 0.898290E-01 0.759986E-01
1.972830 0.915747E-01 0.915747E-01 0.773450E-01
2.000040 0.933784E-01 0.933784E-01 0.787327E-01
2.027250 0.952435E-01 0.952435E-01 0.801640E-01
2.054460 0.971731E-01 0.971731E-01 0.816410E-01
2.081670 0.991707E-01 0.991707E-01 0.831658E-01
2.108880 0.101240E+00 0.101240E+00 0.847408E-01
2.136090 0.103384E+00 0.103384E+00 0.863683E-01
2.163310 0.105608E+00 0.105608E+00 0.880517E-01
2.190520 0.107916E+00 0.107916E+00 0.897924E-01
2.217730 0.110311E+00 0.110311E+00 0.915941E-01
2.244940 0.112801E+00 0.112801E+00 0.934599E-01
2.272150 0.115389E+00 0.115389E+00 0.953933E-01
2.299360 0.118083E+00 0.118083E+00 0.973979E-01
2.326570 0.120888E+00 0.120888E+00 0.994776E-01
2.353790 0.123813E+00 0.123813E+00 0.101637E+00
2.381000 0.126863E+00 0.126863E+00 0.103880E+00
2.408210 0.130047E+00 0.130047E+00 0.106212E+00
2.435420 0.133374E+00 0.133374E+00 0.108638E+00
2.462630 0.136855E+00 0.136855E+00 0.111163E+00
2.489840 0.140501E+00 0.140501E+00 0.113794E+00
2.517050 0.144322E+00 0.144322E+00 0.116538E+00
2.544270 0.148334E+00 0.148334E+00 0.119402E+00
2.571480 0.152549E+00 0.152549E+00 0.122393E+00
2.598690 0.156984E+00 0.156984E+00 0.125520E+00
2.625900 0.161656E+00 0.161656E+00 0.128793E+00
2.653110 0.166586E+00 0.166586E+00 0.132221E+00
2.680320 0.171797E+00 0.171797E+00 0.135816E+00
2.707530 0.177312E+00 0.177312E+00 0.139590E+00
2.734750 0.183163E+00 0.183163E+00 0.143558E+00
2.761960 0.189377E+00 0.189377E+00 0.147733E+00
2.789170 0.195993E+00 0.195993E+00 0.152131E+00
2.816380 0.203053E+00 0.203053E+00 0.156771E+00
2.843590 0.210603E+00 0.210603E+00 0.161674E+00
2.870800 0.218700E+00 0.218700E+00 0.166862E+00
2.898010 0.227407E+00 0.227407E+00 0.172359E+00
2.925220 0.236799E+00 0.236799E+00 0.178195E+00
2.952440 0.246969E+00 0.246969E+00 0.184403E+00
2.979650 0.258015E+00 0.258015E+00 0.191014E+00
3.006860 0.270064E+00 0.270064E+00 0.198071E+00
3.034070 0.283271E+00 0.283271E+00 0.205621E+00
3.061280 0.297820E+00 0.297820E+00 0.213714E+00
3.088490 0.313942E+00 0.313942E+00 0.222412E+00
3.115700 0.331924E+00 0.331924E+00 0.231783E+00
3.142920 0.352139E+00 0.352139E+00 0.241912E+00
3.170130 0.375043E+00 0.375043E+00 0.252884E+00
3.197340 0.401258E+00 0.401258E+00 0.264812E+00
3.224550 0.431606E+00 0.431606E+00 0.277823E+00
3.251760 0.467197E+00 0.467197E+00 0.292070E+00
3.278970 0.509562E+00 0.509562E+00 0.307736E+00
3.306180 0.560820E+00 0.560820E+00 0.325038E+00
3.333400 0.623909E+00 0.623909E+00 0.344250E+00
3.360610 0.702596E+00 0.702596E+00 0.365685E+00
3.387820 0.801304E+00 0.801304E+00 0.389751E+00
3.415030 0.923872E+00 0.923872E+00 0.416950E+00
3.442240 0.107173E+01 0.107173E+01 0.447904E+00
3.469450 0.124267E+01 0.124267E+01 0.483390E+00
3.496660 0.143126E+01 0.143126E+01 0.524389E+00
3.523880 0.163047E+01 0.163047E+01 0.572168E+00
3.551090 0.183261E+01 0.183261E+01 0.628318E+00
3.578300 0.202973E+01 0.202973E+01 0.695011E+00
3.605510 0.221287E+01 0.221287E+01 0.775173E+00
3.632720 0.237384E+01 0.237384E+01 0.872860E+00
3.659930 0.251066E+01 0.251066E+01 0.993795E+00
3.687140 0.263065E+01 0.263065E+01 0.114610E+01
3.714360 0.274528E+01 0.274528E+01 0.134127E+01
3.741570 0.286359E+01 0.286359E+01 0.159460E+01
3.768780 0.299083E+01 0.299083E+01 0.192471E+01
3.795990 0.312924E+01 0.312924E+01 0.234769E+01
3.823200 0.327807E+01 0.327807E+01 0.286399E+01
3.850410 0.343260E+01 0.343260E+01 0.344620E+01
3.877620 0.358662E+01 0.358662E+01 0.404586E+01
3.904840 0.373681E+01 0.373681E+01 0.461113E+01
3.932050 0.388180E+01 0.388180E+01 0.508581E+01
3.959260 0.401942E+01 0.401942E+01 0.540721E+01
3.986470 0.414740E+01 0.414740E+01 0.553109E+01
4.013680 0.426715E+01 0.426715E+01 0.546831E+01
4.040890 0.438582E+01 0.438582E+01 0.528380E+01
4.068100 0.451550E+01 0.451550E+01 0.505608E+01
4.095310 0.466991E+01 0.466991E+01 0.483912E+01
4.122530 0.486032E+01 0.486032E+01 0.465591E+01
4.149740 0.509208E+01 0.509208E+01 0.451142E+01
4.176950 0.536528E+01 0.536528E+01 0.440276E+01
4.204160 0.567519E+01 0.567519E+01 0.432499E+01
4.231370 0.600511E+01 0.600511E+01 0.427409E+01
4.258580 0.631883E+01 0.631883E+01 0.424877E+01
4.285790 0.657748E+01 0.657748E+01 0.425233E+01
4.313010 0.676919E+01 0.676919E+01 0.429305E+01
4.340220 0.691299E+01 0.691299E+01 0.437856E+01
4.367430 0.704092E+01 0.704092E+01 0.450626E+01
4.394640 0.717975E+01 0.717975E+01 0.466057E+01
4.421850 0.734044E+01 0.734044E+01 0.482230E+01
4.449060 0.751316E+01 0.751316E+01 0.497832E+01
4.476270 0.766929E+01 0.766929E+01 0.512464E+01
4.503490 0.777770E+01 0.777770E+01 0.526604E+01
4.530700 0.783118E+01 0.783118E+01 0.541364E+01
4.557910 0.785079E+01 0.785079E+01 0.557927E+01
4.585120 0.785861E+01 0.785861E+01 0.576690E+01
4.612330 0.785971E+01 0.785971E+01 0.596871E+01
4.639540 0.784861E+01 0.784861E+01 0.616832E+01
4.666750 0.781883E+01 0.781883E+01 0.634591E+01
4.693970 0.776735E+01 0.776735E+01 0.648435E+01
4.721180 0.769722E+01 0.769722E+01 0.657504E+01
4.748390 0.761689E+01 0.761689E+01 0.661656E+01
4.775600 0.753730E+01 0.753730E+01 0.660658E+01
4.802810 0.746895E+01 0.746895E+01 0.653923E+01
4.830020 0.741908E+01 0.741908E+01 0.640958E+01
4.857230 0.738848E+01 0.738848E+01 0.621934E+01
4.884450 0.737110E+01 0.737110E+01 0.598007E+01
4.911660 0.736059E+01 0.736059E+01 0.571302E+01
4.938870 0.736060E+01 0.736060E+01 0.544349E+01
4.966080 0.738270E+01 0.738270E+01 0.519296E+01
4.993290 0.743320E+01 0.743320E+01 0.497480E+01
5.020500 0.750860E+01 0.750860E+01 0.479554E+01
5.047710 0.759997E+01 0.759997E+01 0.465771E+01
5.074930 0.769494E+01 0.769494E+01 0.456081E+01
5.102140 0.778044E+01 0.778044E+01 0.450034E+01
5.129350 0.785001E+01 0.785001E+01 0.446685E+01
5.156560 0.790376E+01 0.790376E+01 0.444836E+01
5.183770 0.794258E+01 0.794258E+01 0.443380E+01
5.210980 0.796660E+01 0.796660E+01 0.441537E+01
5.238190 0.797699E+01 0.797699E+01 0.438942E+01
5.265400 0.797662E+01 0.797662E+01 0.435611E+01
5.292620 0.797041E+01 0.797041E+01 0.431832E+01
5.319830 0.796573E+01 0.796573E+01 0.428058E+01
5.347040 0.796979E+01 0.796979E+01 0.424735E+01
5.374250 0.798515E+01 0.798515E+01 0.422180E+01
5.401460 0.800850E+01 0.800850E+01 0.420570E+01
5.428670 0.803310E+01 0.803310E+01 0.419973E+01
5.455880 0.805078E+01 0.805078E+01 0.420349E+01
5.483100 0.805192E+01 0.805192E+01 0.421575E+01
5.510310 0.802703E+01 0.802703E+01 0.423486E+01
5.537520 0.796961E+01 0.796961E+01 0.425793E+01
5.564730 0.788074E+01 0.788074E+01 0.428017E+01
5.591940 0.777218E+01 0.777218E+01 0.429511E+01
5.619150 0.765898E+01 0.765898E+01 0.429506E+01
5.646360 0.754898E+01 0.754898E+01 0.427403E+01
5.673580 0.743985E+01 0.743985E+01 0.423324E+01
5.700790 0.732418E+01 0.732418E+01 0.418316E+01
5.728000 0.719598E+01 0.719598E+01 0.413798E+01
5.755210 0.705249E+01 0.705249E+01 0.410917E+01
5.782420 0.689309E+01 0.689309E+01 0.410434E+01
5.809630 0.671951E+01 0.671951E+01 0.412825E+01
5.836840 0.653698E+01 0.653698E+01 0.418250E+01
5.864060 0.635370E+01 0.635370E+01 0.426555E+01
5.891270 0.617826E+01 0.617826E+01 0.437296E+01
5.918480 0.601685E+01 0.601685E+01 0.449698E+01
5.945690 0.587297E+01 0.587297E+01 0.462644E+01
5.972900 0.574719E+01 0.574719E+01 0.474981E+01
6.000110 0.563742E+01 0.563742E+01 0.485996E+01
6.027320 0.553978E+01 0.553978E+01 0.495768E+01
6.054540 0.544883E+01 0.544883E+01 0.505117E+01
6.081750 0.535932E+01 0.535932E+01 0.515235E+01
6.108960 0.526969E+01 0.526969E+01 0.527196E+01
6.136170 0.518314E+01 0.518314E+01 0.541630E+01
6.163380 0.510456E+01 0.510456E+01 0.558685E+01
6.190590 0.503706E+01 0.503706E+01 0.577749E+01
6.217800 0.498067E+01 0.498067E+01 0.596752E+01
6.245020 0.493271E+01 0.493271E+01 0.611834E+01
6.272230 0.488948E+01 0.488948E+01 0.618853E+01
6.299440 0.484860E+01 0.484860E+01 0.616505E+01
6.326650 0.481072E+01 0.481072E+01 0.607495E+01
6.353860 0.477963E+01 0.477963E+01 0.596374E+01
6.381070 0.476115E+01 0.476115E+01 0.586595E+01
6.408280 0.476123E+01 0.476123E+01 0.579374E+01
6.435490 0.478405E+01 0.478405E+01 0.574406E+01
6.462710 0.483111E+01 0.483111E+01 0.570949E+01
6.489920 0.490073E+01 0.490073E+01 0.568445E+01
6.517130 0.498893E+01 0.498893E+01 0.566733E+01
6.544340 0.509126E+01 0.509126E+01 0.565932E+01
6.571550 0.520416E+01 0.520416E+01 0.566206E+01
6.598760 0.532466E+01 0.532466E+01 0.567648E+01
6.625970 0.544971E+01 0.544971E+01 0.570345E+01
6.653190 0.557587E+01 0.557587E+01 0.574480E+01
6.680400 0.569887E+01 0.569887E+01 0.580382E+01
6.707610 0.581313E+01 0.581313E+01 0.588472E+01
6.734820 0.591029E+01 0.591029E+01 0.599147E+01
6.762030 0.598055E+01 0.598055E+01 0.612658E+01
6.789240 0.601794E+01 0.601794E+01 0.629066E+01
6.816450 0.602365E+01 0.602365E+01 0.648341E+01
6.843670 0.600152E+01 0.600152E+01 0.670442E+01
6.870880 0.595319E+01 0.595319E+01 0.695181E+01
6.898090 0.587944E+01 0.587944E+01 0.722170E+01
6.925300 0.578397E+01 0.578397E+01 0.750769E+01
6.952510 0.567393E+01 0.567393E+01 0.780116E+01
6.979720 0.555840E+01 0.555840E+01 0.809302E+01
7.006930 0.544656E+01 0.544656E+01 0.837730E+01
7.034150 0.534624E+01 0.534624E+01 0.865386E+01
7.061360 0.526323E+01 0.526323E+01 0.892836E+01
7.088570 0.520097E+01 0.520097E+01 0.920978E+01
7.115780 0.516035E+01 0.516035E+01 0.950393E+01
7.142990 0.513843E+01 0.513843E+01 0.981049E+01
7.170200 0.512967E+01 0.512967E+01 0.101259E+02
7.197410 0.513063E+01 0.513063E+01 0.104481E+02
7.224630 0.514151E+01 0.514151E+01 0.107758E+02
7.251840 0.516170E+01 0.516170E+01 0.111033E+02
7.279050 0.518712E+01 0.518712E+01 0.114236E+02
7.306260 0.521144E+01 0.521144E+01 0.117351E+02
7.333470 0.522893E+01 0.522893E+01 0.120377E+02
7.360680 0.523802E+01 0.523802E+01 0.123194E+02
7.387890 0.524284E+01 0.524284E+01 0.125481E+02
7.415110 0.524987E+01 0.524987E+01 0.126878E+02
7.442320 0.526179E+01 0.526179E+01 0.127294E+02
7.469530 0.527424E+01 0.527424E+01 0.126981E+02
7.496740 0.527875E+01 0.527875E+01 0.126252E+02
7.523950 0.526932E+01 0.526932E+01 0.125160E+02
7.551160 0.524603E+01 0.524603E+01 0.123399E+02
7.578370 0.521290E+01 0.521290E+01 0.120573E+02
7.605580 0.517407E+01 0.517407E+01 0.116618E+02
7.632800 0.513153E+01 0.513153E+01 0.111844E+02
7.660010 0.508546E+01 0.508546E+01 0.106662E+02
7.687220 0.503626E+01 0.503626E+01 0.101395E+02
7.714430 0.498616E+01 0.498616E+01 0.962638E+01
7.741640 0.493923E+01 0.493923E+01 0.914075E+01
7.768850 0.490053E+01 0.490053E+01 0.869154E+01
7.796060 0.487499E+01 0.487499E+01 0.828666E+01
7.823280 0.486648E+01 0.486648E+01 0.793352E+01
7.850490 0.487757E+01 0.487757E+01 0.763724E+01
7.877700 0.490902E+01 0.490902E+01 0.739675E+01
7.904910 0.495748E+01 0.495748E+01 0.720269E+01
7.932120 0.501320E+01 0.501320E+01 0.703995E+01
7.959330 0.506376E+01 0.506376E+01 0.689431E+01
7.986540 0.510232E+01 0.510232E+01 0.675668E+01
8.013760 0.512988E+01 0.512988E+01 0.662350E+01
8.040970 0.515090E+01 0.515090E+01 0.649656E+01
8.068180 0.516956E+01 0.516956E+01 0.638136E+01
8.095390 0.518738E+01 0.518738E+01 0.628306E+01
8.122600 0.520093E+01 0.520093E+01 0.620165E+01
8.149810 0.520211E+01 0.520211E+01 0.613185E+01
8.177020 0.518142E+01 0.518142E+01 0.606662E+01
8.204240 0.513148E+01 0.513148E+01 0.599901E+01
8.231450 0.504977E+01 0.504977E+01 0.592210E+01
8.258660 0.493884E+01 0.493884E+01 0.582945E+01
8.285870 0.480564E+01 0.480564E+01 0.571751E+01
8.313080 0.466096E+01 0.466096E+01 0.558871E+01
8.340290 0.451783E+01 0.451783E+01 0.545097E+01
8.367500 0.438673E+01 0.438673E+01 0.531174E+01
8.394720 0.427120E+01 0.427120E+01 0.517234E+01
8.421930 0.416929E+01 0.416929E+01 0.502778E+01
8.449140 0.407719E+01 0.407719E+01 0.487039E+01
8.476350 0.399031E+01 0.399031E+01 0.469521E+01
8.503560 0.390169E+01 0.390169E+01 0.450277E+01
8.530770 0.380351E+01 0.380351E+01 0.430015E+01
8.557980 0.369291E+01 0.369291E+01 0.409982E+01
8.585200 0.357238E+01 0.357238E+01 0.391346E+01
8.612410 0.344183E+01 0.344183E+01 0.374716E+01
8.639620 0.329658E+01 0.329658E+01 0.360174E+01
8.666830 0.313622E+01 0.313622E+01 0.347639E+01
8.694040 0.296953E+01 0.296953E+01 0.337033E+01
8.721250 0.280883E+01 0.280883E+01 0.328242E+01
8.748460 0.266244E+01 0.266244E+01 0.321016E+01
8.775670 0.253269E+01 0.253269E+01 0.314988E+01
8.802890 0.241815E+01 0.241815E+01 0.309765E+01
8.830100 0.231619E+01 0.231619E+01 0.305029E+01
8.857310 0.222417E+01 0.222417E+01 0.300565E+01
8.884520 0.214008E+01 0.214008E+01 0.296303E+01
8.911730 0.206234E+01 0.206234E+01 0.292292E+01
8.938940 0.198931E+01 0.198931E+01 0.288642E+01
8.966150 0.191911E+01 0.191911E+01 0.285429E+01
8.993370 0.185003E+01 0.185003E+01 0.282588E+01
9.020580 0.178137E+01 0.178137E+01 0.279891E+01
9.047790 0.171349E+01 0.171349E+01 0.277025E+01
9.075000 0.164729E+01 0.164729E+01 0.273661E+01
9.102210 0.158360E+01 0.158360E+01 0.269559E+01
9.129420 0.152315E+01 0.152315E+01 0.264654E+01
9.156630 0.146660E+01 0.146660E+01 0.259018E+01
9.183850 0.141437E+01 0.141437E+01 0.252733E+01
9.211060 0.136652E+01 0.136652E+01 0.245829E+01
9.238270 0.132272E+01 0.132272E+01 0.238287E+01
9.265480 0.128262E+01 0.128262E+01 0.230114E+01
9.292690 0.124599E+01 0.124599E+01 0.221384E+01
9.319900 0.121263E+01 0.121263E+01 0.212248E+01
9.347110 0.118222E+01 0.118222E+01 0.202903E+01
9.374330 0.115417E+01 0.115417E+01 0.193467E+01
9.401540 0.112753E+01 0.112753E+01 0.183883E+01
9.428750 0.110129E+01 0.110129E+01 0.173951E+01
9.455960 0.107492E+01 0.107492E+01 0.163597E+01
9.483170 0.104880E+01 0.104880E+01 0.153068E+01
9.510380 0.102406E+01 0.102406E+01 0.142860E+01
9.537590 0.100197E+01 0.100197E+01 0.133460E+01
9.564810 0.983396E+00 0.983396E+00 0.125133E+01
9.592020 0.968730E+00 0.968730E+00 0.117912E+01
9.619230 0.957922E+00 0.957922E+00 0.111688E+01
9.646440 0.950487E+00 0.950487E+00 0.106332E+01
9.673650 0.945507E+00 0.945507E+00 0.101723E+01
9.700860 0.941785E+00 0.941785E+00 0.977452E+00
9.728070 0.938224E+00 0.938224E+00 0.942814E+00
9.755290 0.934175E+00 0.934175E+00 0.912236E+00
9.782500 0.929271E+00 0.929271E+00 0.884957E+00
9.809710 0.922672E+00 0.922672E+00 0.860396E+00
9.836920 0.912769E+00 0.912769E+00 0.837935E+00
9.864130 0.898445E+00 0.898445E+00 0.816755E+00
9.891340 0.880254E+00 0.880254E+00 0.795948E+00
9.918550 0.859448E+00 0.859448E+00 0.774842E+00
9.945760 0.836848E+00 0.836848E+00 0.753229E+00
9.972980 0.812844E+00 0.812844E+00 0.731213E+00
10.000190 0.787734E+00 0.787734E+00 0.708943E+00
10.027400 0.761866E+00 0.761866E+00 0.686589E+00
10.054610 0.735783E+00 0.735783E+00 0.664522E+00
10.081820 0.710205E+00 0.710205E+00 0.643221E+00
10.109030 0.685895E+00 0.685895E+00 0.623077E+00
10.136240 0.663456E+00 0.663456E+00 0.604316E+00
10.163460 0.643230E+00 0.643230E+00 0.587014E+00
10.190670 0.625420E+00 0.625420E+00 0.571177E+00
10.217880 0.610102E+00 0.610102E+00 0.556700E+00
10.245090 0.597194E+00 0.597194E+00 0.543475E+00
10.272300 0.586348E+00 0.586348E+00 0.531588E+00
10.299510 0.576989E+00 0.576989E+00 0.521375E+00
10.326720 0.568597E+00 0.568597E+00 0.513270E+00
10.353940 0.560861E+00 0.560861E+00 0.507566E+00
10.381150 0.553644E+00 0.553644E+00 0.504226E+00
10.408360 0.546897E+00 0.546897E+00 0.502737E+00
10.435570 0.540488E+00 0.540488E+00 0.502069E+00
10.462780 0.533900E+00 0.533900E+00 0.500845E+00
10.489990 0.526036E+00 0.526036E+00 0.497672E+00
10.517200 0.515539E+00 0.515539E+00 0.491468E+00
10.544420 0.501605E+00 0.501605E+00 0.481739E+00
10.571630 0.484518E+00 0.484518E+00 0.468575E+00
10.598840 0.465296E+00 0.465296E+00 0.452216E+00
10.626050 0.445245E+00 0.445245E+00 0.433081E+00
10.653260 0.425632E+00 0.425632E+00 0.412213E+00
10.680470 0.407373E+00 0.407373E+00 0.391256E+00
10.707680 0.390857E+00 0.390857E+00 0.371759E+00
10.734900 0.376041E+00 0.376041E+00 0.354472E+00
10.762110 0.362690E+00 0.362690E+00 0.339353E+00
10.789320 0.350484E+00 0.350484E+00 0.325896E+00
10.816530 0.339064E+00 0.339064E+00 0.313526E+00
10.843740 0.328063E+00 0.328063E+00 0.301864E+00
10.870950 0.317199E+00 0.317199E+00 0.290908E+00
10.898160 0.306351E+00 0.306351E+00 0.280988E+00
10.925380 0.295542E+00 0.295542E+00 0.272490E+00
10.952590 0.284889E+00 0.284889E+00 0.265635E+00
10.979800 0.274550E+00 0.274550E+00 0.260388E+00
11.007010 0.264751E+00 0.264751E+00 0.256509E+00
11.034220 0.255723E+00 0.255723E+00 0.253679E+00
11.061430 0.247596E+00 0.247596E+00 0.251622E+00
11.088640 0.240369E+00 0.240369E+00 0.250170E+00
11.115850 0.233947E+00 0.233947E+00 0.249243E+00
11.143070 0.228188E+00 0.228188E+00 0.248807E+00
11.170280 0.222955E+00 0.222955E+00 0.248860E+00
11.197490 0.218145E+00 0.218145E+00 0.249411E+00
11.224700 0.213733E+00 0.213733E+00 0.250483E+00
11.251910 0.209781E+00 0.209781E+00 0.252112E+00
11.279120 0.206419E+00 0.206419E+00 0.254350E+00
11.306330 0.203806E+00 0.203806E+00 0.257283E+00
11.333550 0.202115E+00 0.202115E+00 0.261045E+00
11.360760 0.201488E+00 0.201488E+00 0.265789E+00
11.387970 0.201999E+00 0.201999E+00 0.271637E+00
11.415180 0.203618E+00 0.203618E+00 0.278688E+00
11.442390 0.206233E+00 0.206233E+00 0.287067E+00
11.469600 0.209656E+00 0.209656E+00 0.296766E+00
11.496810 0.213632E+00 0.213632E+00 0.307563E+00
11.524030 0.217865E+00 0.217865E+00 0.319150E+00
11.551240 0.222064E+00 0.222064E+00 0.331020E+00
11.578450 0.225986E+00 0.225986E+00 0.342260E+00
11.605660 0.229492E+00 0.229492E+00 0.351803E+00
11.632870 0.232589E+00 0.232589E+00 0.358982E+00
11.660080 0.235393E+00 0.235393E+00 0.363724E+00
11.687290 0.238046E+00 0.238046E+00 0.366473E+00
11.714510 0.240660E+00 0.240660E+00 0.367998E+00
11.741720 0.243313E+00 0.243313E+00 0.369102E+00
11.768930 0.246080E+00 0.246080E+00 0.370359E+00
11.796140 0.249029E+00 0.249029E+00 0.371998E+00
11.823350 0.252199E+00 0.252199E+00 0.373982E+00
11.850560 0.255603E+00 0.255603E+00 0.376246E+00
11.877770 0.259242E+00 0.259242E+00 0.378822E+00
11.904990 0.263108E+00 0.263108E+00 0.381731E+00
11.932200 0.267171E+00 0.267171E+00 0.384895E+00
11.959410 0.271397E+00 0.271397E+00 0.388183E+00
11.986620 0.275748E+00 0.275748E+00 0.391459E+00
12.013830 0.280207E+00 0.280207E+00 0.394617E+00
12.041040 0.284779E+00 0.284779E+00 0.397585E+00
12.068250 0.289489E+00 0.289489E+00 0.400326E+00
12.095470 0.294366E+00 0.294366E+00 0.402805E+00
12.122680 0.299435E+00 0.299435E+00 0.404963E+00
12.149890 0.304734E+00 0.304734E+00 0.406754E+00
12.177100 0.310312E+00 0.310312E+00 0.408164E+00
12.204310 0.316205E+00 0.316205E+00 0.409203E+00
12.231520 0.322417E+00 0.322417E+00 0.409887E+00
12.258730 0.328906E+00 0.328906E+00 0.410242E+00
12.285940 0.335600E+00 0.335600E+00 0.410311E+00
12.313160 0.342411E+00 0.342411E+00 0.410149E+00
12.340370 0.349232E+00 0.349232E+00 0.409817E+00
12.367580 0.355953E+00 0.355953E+00 0.409366E+00
12.394790 0.362484E+00 0.362484E+00 0.408840E+00
12.422000 0.368797E+00 0.368797E+00 0.408272E+00
12.449210 0.374921E+00 0.374921E+00 0.407694E+00
12.476420 0.380909E+00 0.380909E+00 0.407140E+00
12.503640 0.386807E+00 0.386807E+00 0.406646E+00
12.530850 0.392621E+00 0.392621E+00 0.406247E+00
12.558060 0.398323E+00 0.398323E+00 0.405966E+00
12.585270 0.403867E+00 0.403867E+00 0.405811E+00
12.612480 0.409240E+00 0.409240E+00 0.405770E+00
12.639690 0.414486E+00 0.414486E+00 0.405814E+00
12.666900 0.419668E+00 0.419668E+00 0.405896E+00
12.694120 0.424813E+00 0.424813E+00 0.405955E+00
12.721330 0.429863E+00 0.429863E+00 0.405919E+00
12.748540 0.434756E+00 0.434756E+00 0.405705E+00
12.775750 0.439509E+00 0.439509E+00 0.405226E+00
12.802960 0.444204E+00 0.444204E+00 0.404411E+00
12.830170 0.448916E+00 0.448916E+00 0.403236E+00
12.857380 0.453674E+00 0.453674E+00 0.401751E+00
12.884600 0.458480E+00 0.458480E+00 0.400046E+00
12.911810 0.463314E+00 0.463314E+00 0.398200E+00
12.939020 0.468156E+00 0.468156E+00 0.396264E+00
12.966230 0.472984E+00 0.472984E+00 0.394273E+00
12.993440 0.477776E+00 0.477776E+00 0.392263E+00
13.020650 0.482520E+00 0.482520E+00 0.390272E+00
13.047860 0.487206E+00 0.487206E+00 0.388338E+00
13.075080 0.491828E+00 0.491828E+00 0.386499E+00
13.102290 0.496373E+00 0.496373E+00 0.384782E+00
13.129500 0.500830E+00 0.500830E+00 0.383197E+00
13.156710 0.505198E+00 0.505198E+00 0.381726E+00
13.183920 0.509486E+00 0.509486E+00 0.380348E+00
13.211130 0.513729E+00 0.513729E+00 0.379047E+00
13.238340 0.517974E+00 0.517974E+00 0.377821E+00
13.265560 0.522253E+00 0.522253E+00 0.376680E+00
13.292770 0.526552E+00 0.526552E+00 0.375638E+00
13.319980 0.530809E+00 0.530809E+00 0.374712E+00
13.347190 0.534909E+00 0.534909E+00 0.373912E+00
13.374400 0.538709E+00 0.538709E+00 0.373241E+00
13.401610 0.542123E+00 0.542123E+00 0.372692E+00
13.428820 0.545214E+00 0.545214E+00 0.372245E+00
13.456030 0.548150E+00 0.548150E+00 0.371872E+00
13.483250 0.551061E+00 0.551061E+00 0.371532E+00
13.510460 0.553997E+00 0.553997E+00 0.371188E+00
13.537670 0.556971E+00 0.556971E+00 0.370816E+00
13.564880 0.559989E+00 0.559989E+00 0.370402E+00
13.592090 0.563057E+00 0.563057E+00 0.369935E+00
13.619300 0.566181E+00 0.566181E+00 0.369399E+00
13.646510 0.569353E+00 0.569353E+00 0.368766E+00
13.673730 0.572566E+00 0.572566E+00 0.368002E+00
13.700940 0.575826E+00 0.575826E+00 0.367093E+00
13.728150 0.579177E+00 0.579177E+00 0.366051E+00
13.755360 0.582674E+00 0.582674E+00 0.364915E+00
13.782570 0.586380E+00 0.586380E+00 0.363728E+00
13.809780 0.590359E+00 0.590359E+00 0.362528E+00
13.836990 0.594682E+00 0.594682E+00 0.361338E+00
13.864210 0.599427E+00 0.599427E+00 0.360176E+00
13.891420 0.604645E+00 0.604645E+00 0.359048E+00
13.918630 0.610316E+00 0.610316E+00 0.357950E+00
13.945840 0.616308E+00 0.616308E+00 0.356862E+00
13.973050 0.622445E+00 0.622445E+00 0.355763E+00
14.000260 0.628595E+00 0.628595E+00 0.354631E+00
14.027470 0.634643E+00 0.634643E+00 0.353450E+00
14.054690 0.640463E+00 0.640463E+00 0.352210E+00
14.081900 0.645982E+00 0.645982E+00 0.350919E+00
14.109110 0.651242E+00 0.651242E+00 0.349600E+00
14.136320 0.656346E+00 0.656346E+00 0.348283E+00
14.163530 0.661361E+00 0.661361E+00 0.346995E+00
14.190740 0.666280E+00 0.666280E+00 0.345759E+00
14.217950 0.671082E+00 0.671082E+00 0.344595E+00
14.245170 0.675846E+00 0.675846E+00 0.343517E+00
14.272380 0.680713E+00 0.680713E+00 0.342538E+00
14.299590 0.685818E+00 0.685818E+00 0.341663E+00
14.326800 0.691246E+00 0.691246E+00 0.340901E+00
14.354010 0.697060E+00 0.697060E+00 0.340260E+00
14.381220 0.703318E+00 0.703318E+00 0.339748E+00
14.408430 0.710057E+00 0.710057E+00 0.339367E+00
14.435650 0.717258E+00 0.717258E+00 0.339109E+00
14.462860 0.724737E+00 0.724737E+00 0.338946E+00
14.490070 0.732060E+00 0.732060E+00 0.338827E+00
14.517280 0.738629E+00 0.738629E+00 0.338681E+00
14.544490 0.744065E+00 0.744065E+00 0.338434E+00
14.571700 0.748501E+00 0.748501E+00 0.338068E+00
14.598910 0.752549E+00 0.752549E+00 0.337644E+00
14.626120 0.756969E+00 0.756969E+00 0.337242E+00
14.653340 0.762228E+00 0.762228E+00 0.336850E+00
14.680550 0.768381E+00 0.768381E+00 0.336357E+00
14.707760 0.775248E+00 0.775248E+00 0.335651E+00
14.734970 0.782613E+00 0.782613E+00 0.334719E+00
14.762180 0.790399E+00 0.790399E+00 0.333696E+00
14.789390 0.798746E+00 0.798746E+00 0.332871E+00
14.816600 0.808015E+00 0.808015E+00 0.332665E+00
14.843820 0.818799E+00 0.818799E+00 0.333569E+00
14.871030 0.831798E+00 0.831798E+00 0.336037E+00
14.898240 0.847476E+00 0.847476E+00 0.340324E+00
14.925450 0.865603E+00 0.865603E+00 0.346407E+00
14.952660 0.885010E+00 0.885010E+00 0.354148E+00
14.979870 0.903682E+00 0.903682E+00 0.363530E+00
15.007080 0.919406E+00 0.919406E+00 0.374665E+00
15.034300 0.930766E+00 0.930766E+00 0.387517E+00
15.061510 0.937646E+00 0.937646E+00 0.401501E+00
15.088720 0.940926E+00 0.940926E+00 0.415501E+00
15.115930 0.941744E+00 0.941744E+00 0.428413E+00
15.143140 0.940906E+00 0.940906E+00 0.439691E+00
15.170350 0.938685E+00 0.938685E+00 0.449237E+00
15.197560 0.935051E+00 0.935051E+00 0.456989E+00
15.224780 0.930020E+00 0.930020E+00 0.462791E+00
15.251990 0.923786E+00 0.923786E+00 0.466486E+00
15.279200 0.916516E+00 0.916516E+00 0.468021E+00
15.306410 0.908208E+00 0.908208E+00 0.467528E+00
15.333620 0.898842E+00 0.898842E+00 0.465436E+00
15.360830 0.888647E+00 0.888647E+00 0.462434E+00
15.388040 0.878192E+00 0.878192E+00 0.459309E+00
15.415260 0.868016E+00 0.868016E+00 0.456790E+00
15.442470 0.858189E+00 0.858189E+00 0.455472E+00
15.469680 0.848341E+00 0.848341E+00 0.455740E+00
15.496890 0.838071E+00 0.838071E+00 0.457687E+00
15.524100 0.827244E+00 0.827244E+00 0.461093E+00
15.551310 0.816168E+00 0.816168E+00 0.465531E+00
15.578520 0.805489E+00 0.805489E+00 0.470524E+00
15.605740 0.795764E+00 0.795764E+00 0.475677E+00
15.632950 0.787239E+00 0.787239E+00 0.480739E+00
15.660160 0.779947E+00 0.779947E+00 0.485625E+00
15.687370 0.773802E+00 0.773802E+00 0.490342E+00
15.714580 0.768513E+00 0.768513E+00 0.494899E+00
15.741790 0.763486E+00 0.763486E+00 0.499253E+00
15.769000 0.757982E+00 0.757982E+00 0.503291E+00
15.796210 0.751576E+00 0.751576E+00 0.506876E+00
15.823430 0.744492E+00 0.744492E+00 0.509941E+00
15.850640 0.737371E+00 0.737371E+00 0.512573E+00
15.877850 0.730857E+00 0.730857E+00 0.515013E+00
15.905060 0.725429E+00 0.725429E+00 0.517561E+00
15.932270 0.721331E+00 0.721331E+00 0.520503E+00
15.959480 0.718546E+00 0.718546E+00 0.524086E+00
15.986690 0.716873E+00 0.716873E+00 0.528481E+00
16.013910 0.716067E+00 0.716067E+00 0.533728E+00
16.041120 0.715973E+00 0.715973E+00 0.539743E+00
16.068330 0.716636E+00 0.716636E+00 0.546406E+00
16.095540 0.718283E+00 0.718283E+00 0.553628E+00
16.122750 0.721136E+00 0.721136E+00 0.561371E+00
16.149960 0.725199E+00 0.725199E+00 0.569644E+00
16.177170 0.730217E+00 0.730217E+00 0.578515E+00
16.204390 0.735806E+00 0.735806E+00 0.588172E+00
16.231600 0.741563E+00 0.741563E+00 0.598933E+00
16.258810 0.747135E+00 0.747135E+00 0.611255E+00
16.286020 0.752239E+00 0.752239E+00 0.625700E+00
16.313230 0.756654E+00 0.756654E+00 0.642750E+00
16.340440 0.760179E+00 0.760179E+00 0.662447E+00
16.367650 0.762641E+00 0.762641E+00 0.684078E+00
16.394870 0.763982E+00 0.763982E+00 0.706253E+00
16.422080 0.764317E+00 0.764317E+00 0.727399E+00
16.449290 0.763861E+00 0.763861E+00 0.746678E+00
16.476500 0.762818E+00 0.762818E+00 0.764502E+00
16.503710 0.761375E+00 0.761375E+00 0.782038E+00
16.530920 0.759745E+00 0.759745E+00 0.800212E+00
16.558130 0.758143E+00 0.758143E+00 0.819177E+00
16.585350 0.756700E+00 0.756700E+00 0.838367E+00
16.612560 0.755411E+00 0.755411E+00 0.856800E+00
16.639770 0.754159E+00 0.754159E+00 0.873637E+00
16.666980 0.752772E+00 0.752772E+00 0.888495E+00
16.694190 0.751064E+00 0.751064E+00 0.901047E+00
16.721400 0.748862E+00 0.748862E+00 0.910573E+00
16.748610 0.746067E+00 0.746067E+00 0.916361E+00
16.775830 0.742704E+00 0.742704E+00 0.918492E+00
16.803040 0.738923E+00 0.738923E+00 0.917861E+00
16.830250 0.734960E+00 0.734960E+00 0.915491E+00
16.857460 0.731090E+00 0.731090E+00 0.912140E+00
16.884670 0.727554E+00 0.727554E+00 0.908371E+00
16.911880 0.724532E+00 0.724532E+00 0.904586E+00
16.939090 0.722126E+00 0.722126E+00 0.900978E+00
16.966300 0.720271E+00 0.720271E+00 0.897594E+00
16.993520 0.718799E+00 0.718799E+00 0.894531E+00
17.020730 0.717696E+00 0.717696E+00 0.892102E+00
17.047940 0.717255E+00 0.717255E+00 0.890851E+00
17.075150 0.717978E+00 0.717978E+00 0.891494E+00
17.102360 0.720350E+00 0.720350E+00 0.894846E+00
17.129570 0.724633E+00 0.724633E+00 0.901674E+00
17.156780 0.730692E+00 0.730692E+00 0.912396E+00
17.184000 0.738048E+00 0.738048E+00 0.926765E+00
17.211210 0.746155E+00 0.746155E+00 0.943765E+00
17.238420 0.754623E+00 0.754623E+00 0.961940E+00
17.265630 0.763241E+00 0.763241E+00 0.980000E+00
17.292840 0.771953E+00 0.771953E+00 0.997446E+00
17.320050 0.780801E+00 0.780801E+00 0.101454E+01
17.347260 0.789831E+00 0.789831E+00 0.103165E+01
17.374480 0.799003E+00 0.799003E+00 0.104895E+01
17.401690 0.808072E+00 0.808072E+00 0.106642E+01
17.428900 0.816763E+00 0.816763E+00 0.108403E+01
17.456110 0.825117E+00 0.825117E+00 0.110183E+01
17.483320 0.833511E+00 0.833511E+00 0.111980E+01
17.510530 0.842107E+00 0.842107E+00 0.113758E+01
17.537740 0.850445E+00 0.850445E+00 0.115434E+01
17.564960 0.857599E+00 0.857599E+00 0.116890E+01
17.592170 0.862703E+00 0.862703E+00 0.118008E+01
17.619380 0.865475E+00 0.865475E+00 0.118738E+01
17.646590 0.866201E+00 0.866201E+00 0.119145E+01
17.673800 0.865310E+00 0.865310E+00 0.119333E+01
17.701010 0.863118E+00 0.863118E+00 0.119334E+01
17.728220 0.859992E+00 0.859992E+00 0.119117E+01
17.755440 0.856569E+00 0.856569E+00 0.118650E+01
17.782650 0.853702E+00 0.853702E+00 0.117938E+01
17.809860 0.852123E+00 0.852123E+00 0.117019E+01
17.837070 0.852123E+00 0.852123E+00 0.115957E+01
17.864280 0.853613E+00 0.853613E+00 0.114830E+01
17.891490 0.856537E+00 0.856537E+00 0.113728E+01
17.918700 0.861006E+00 0.861006E+00 0.112723E+01
17.945920 0.866998E+00 0.866998E+00 0.111828E+01
17.973130 0.874153E+00 0.874153E+00 0.111000E+01
18.000340 0.881887E+00 0.881887E+00 0.110170E+01
18.027550 0.889451E+00 0.889451E+00 0.109265E+01
18.054760 0.895836E+00 0.895836E+00 0.108193E+01
18.081970 0.899904E+00 0.899904E+00 0.106837E+01
18.109180 0.900874E+00 0.900874E+00 0.105120E+01
18.136390 0.898748E+00 0.898748E+00 0.103058E+01
18.163610 0.894402E+00 0.894402E+00 0.100718E+01
18.190820 0.889415E+00 0.889415E+00 0.981593E+00
18.218030 0.885687E+00 0.885687E+00 0.954506E+00
18.245240 0.884830E+00 0.884830E+00 0.927483E+00
18.272450 0.887389E+00 0.887389E+00 0.902724E+00
18.299660 0.892370E+00 0.892370E+00 0.881919E+00
18.326870 0.897707E+00 0.897707E+00 0.865489E+00
18.354090 0.901450E+00 0.901450E+00 0.852868E+00
18.381300 0.902674E+00 0.902674E+00 0.843170E+00
18.408510 0.901660E+00 0.901660E+00 0.835533E+00
18.435720 0.899390E+00 0.899390E+00 0.829066E+00
18.462930 0.896801E+00 0.896801E+00 0.822779E+00
18.490140 0.894352E+00 0.894352E+00 0.815877E+00
18.517350 0.892094E+00 0.892094E+00 0.808244E+00
18.544570 0.890005E+00 0.890005E+00 0.800453E+00
18.571780 0.888278E+00 0.888278E+00 0.793303E+00
18.598990 0.887402E+00 0.887402E+00 0.787463E+00
18.626200 0.887973E+00 0.887973E+00 0.783435E+00
18.653410 0.890435E+00 0.890435E+00 0.781563E+00
18.680620 0.894950E+00 0.894950E+00 0.781995E+00
18.707830 0.901377E+00 0.901377E+00 0.784636E+00
18.735050 0.909280E+00 0.909280E+00 0.789113E+00
18.762260 0.918076E+00 0.918076E+00 0.794807E+00
18.789470 0.927389E+00 0.927389E+00 0.801032E+00
18.816680 0.937105E+00 0.937105E+00 0.807189E+00
18.843890 0.947208E+00 0.947208E+00 0.812816E+00
18.871100 0.957783E+00 0.957783E+00 0.817634E+00
18.898310 0.969074E+00 0.969074E+00 0.821671E+00
18.925530 0.981326E+00 0.981326E+00 0.825379E+00
18.952740 0.994453E+00 0.994453E+00 0.829520E+00
18.979950 0.100792E+01 0.100792E+01 0.834865E+00
19.007160 0.102096E+01 0.102096E+01 0.841859E+00
19.034370 0.103299E+01 0.103299E+01 0.850413E+00
19.061580 0.104365E+01 0.104365E+01 0.859856E+00
19.088790 0.105269E+01 0.105269E+01 0.869190E+00
19.116010 0.105999E+01 0.105999E+01 0.877574E+00
19.143220 0.106563E+01 0.106563E+01 0.884595E+00
19.170430 0.106999E+01 0.106999E+01 0.890166E+00
19.197640 0.107350E+01 0.107350E+01 0.894289E+00
19.224850 0.107636E+01 0.107636E+01 0.897020E+00
19.252060 0.107837E+01 0.107837E+01 0.898625E+00
19.279270 0.107898E+01 0.107898E+01 0.899674E+00
19.306480 0.107751E+01 0.107751E+01 0.900873E+00
19.333700 0.107367E+01 0.107367E+01 0.902796E+00
19.360910 0.106786E+01 0.106786E+01 0.905708E+00
19.388120 0.106110E+01 0.106110E+01 0.909609E+00
19.415330 0.105426E+01 0.105426E+01 0.914335E+00
19.442540 0.104767E+01 0.104767E+01 0.919461E+00
19.469750 0.104139E+01 0.104139E+01 0.924261E+00
19.496960 0.103569E+01 0.103569E+01 0.928082E+00
19.524180 0.103102E+01 0.103102E+01 0.930683E+00
19.551390 0.102780E+01 0.102780E+01 0.932037E+00
19.578600 0.102612E+01 0.102612E+01 0.932026E+00
19.605810 0.102570E+01 0.102570E+01 0.930564E+00
19.633020 0.102618E+01 0.102618E+01 0.928017E+00
19.660230 0.102735E+01 0.102735E+01 0.925142E+00
19.687440 0.102904E+01 0.102904E+01 0.922474E+00
19.714660 0.103084E+01 0.103084E+01 0.920030E+00
19.741870 0.103229E+01 0.103229E+01 0.917713E+00
19.769080 0.103332E+01 0.103332E+01 0.915797E+00
19.796290 0.103444E+01 0.103444E+01 0.915052E+00
19.823500 0.103635E+01 0.103635E+01 0.916478E+00
19.850710 0.103961E+01 0.103961E+01 0.920962E+00
19.877920 0.104437E+01 0.104437E+01 0.929245E+00
19.905140 0.105043E+01 0.105043E+01 0.941901E+00
19.932350 0.105727E+01 0.105727E+01 0.958871E+00
19.959560 0.106408E+01 0.106408E+01 0.979138E+00
19.986770 0.106987E+01 0.106987E+01 0.100108E+01
20.013980 0.107408E+01 0.107408E+01 0.102342E+01
20.041190 0.107690E+01 0.107690E+01 0.104596E+01
20.068400 0.107880E+01 0.107880E+01 0.106930E+01
20.095620 0.107969E+01 0.107969E+01 0.109388E+01
20.122830 0.107882E+01 0.107882E+01 0.111932E+01
20.150040 0.107558E+01 0.107558E+01 0.114418E+01
20.177250 0.106995E+01 0.106995E+01 0.116593E+01
20.204460 0.106209E+01 0.106209E+01 0.118142E+01
20.231670 0.105220E+01 0.105220E+01 0.118869E+01
20.258880 0.104071E+01 0.104071E+01 0.118784E+01
20.286100 0.102828E+01 0.102828E+01 0.117983E+01
20.313310 0.101554E+01 0.101554E+01 0.116555E+01
20.340520 0.100269E+01 0.100269E+01 0.114573E+01
20.367730 0.989416E+00 0.989416E+00 0.112119E+01
20.394940 0.975149E+00 0.975149E+00 0.109297E+01
20.422150 0.959606E+00 0.959606E+00 0.106250E+01
20.449360 0.943114E+00 0.943114E+00 0.103165E+01
20.476570 0.926447E+00 0.926447E+00 0.100225E+01
20.503790 0.910487E+00 0.910487E+00 0.975448E+00
20.531000 0.896066E+00 0.896066E+00 0.951643E+00
20.558210 0.883862E+00 0.883862E+00 0.930796E+00
20.585420 0.874408E+00 0.874408E+00 0.912732E+00
20.612630 0.868137E+00 0.868137E+00 0.897284E+00
20.639840 0.865312E+00 0.865312E+00 0.884455E+00
20.667050 0.865822E+00 0.865822E+00 0.874509E+00
20.694270 0.869063E+00 0.869063E+00 0.867798E+00
20.721480 0.874026E+00 0.874026E+00 0.864421E+00
20.748690 0.879625E+00 0.879625E+00 0.864009E+00
20.775900 0.885040E+00 0.885040E+00 0.865804E+00
20.803110 0.889874E+00 0.889874E+00 0.868879E+00
20.830320 0.894078E+00 0.894078E+00 0.872550E+00
20.857530 0.897681E+00 0.897681E+00 0.876851E+00
20.884750 0.900603E+00 0.900603E+00 0.882572E+00
20.911960 0.902735E+00 0.902735E+00 0.890562E+00
20.939170 0.904201E+00 0.904201E+00 0.900938E+00
20.966380 0.905640E+00 0.905640E+00 0.912956E+00
20.993590 0.908330E+00 0.908330E+00 0.925488E+00
21.020800 0.913887E+00 0.913887E+00 0.937503E+00
21.048010 0.923677E+00 0.923677E+00 0.948120E+00
21.075230 0.938335E+00 0.938335E+00 0.956510E+00
21.102440 0.957580E+00 0.957580E+00 0.961949E+00
21.129650 0.980214E+00 0.980214E+00 0.963743E+00
21.156860 0.100422E+01 0.100422E+01 0.961179E+00
21.184070 0.102763E+01 0.102763E+01 0.954311E+00
21.211280 0.104961E+01 0.104961E+01 0.944691E+00
21.238490 0.107074E+01 0.107074E+01 0.934710E+00
21.265710 0.109210E+01 0.109210E+01 0.926290E+00
21.292920 0.111429E+01 0.111429E+01 0.920334E+00
21.320130 0.113742E+01 0.113742E+01 0.917123E+00
21.347340 0.116133E+01 0.116133E+01 0.917074E+00
21.374550 0.118569E+01 0.118569E+01 0.921102E+00
21.401760 0.121005E+01 0.121005E+01 0.930560E+00
21.428970 0.123383E+01 0.123383E+01 0.946710E+00
21.456190 0.125627E+01 0.125627E+01 0.970237E+00
21.483400 0.127658E+01 0.127658E+01 0.100112E+01
21.510610 0.129464E+01 0.129464E+01 0.103863E+01
21.537820 0.131096E+01 0.131096E+01 0.108099E+01
21.565030 0.132601E+01 0.132601E+01 0.112519E+01
21.592240 0.133979E+01 0.133979E+01 0.116766E+01
21.619450 0.135167E+01 0.135167E+01 0.120536E+01
21.646660 0.136042E+01 0.136042E+01 0.123627E+01
21.673880 0.136496E+01 0.136496E+01 0.125922E+01
21.701090 0.136530E+01 0.136530E+01 0.127405E+01
21.728300 0.136297E+01 0.136297E+01 0.128222E+01
21.755510 0.136040E+01 0.136040E+01 0.128709E+01
21.782720 0.135967E+01 0.135967E+01 0.129313E+01
21.809930 0.136153E+01 0.136153E+01 0.130380E+01
21.837140 0.136562E+01 0.136562E+01 0.131978E+01
21.864360 0.137168E+01 0.137168E+01 0.133899E+01
21.891570 0.138056E+01 0.138056E+01 0.135909E+01
21.918780 0.139403E+01 0.139403E+01 0.138036E+01
21.945990 0.141319E+01 0.141319E+01 0.140364E+01
21.973200 0.143696E+01 0.143696E+01 0.142586E+01
22.000410 0.146230E+01 0.146230E+01 0.144049E+01
22.027620 0.148584E+01 0.148584E+01 0.144266E+01
22.054840 0.150569E+01 0.150569E+01 0.143189E+01
22.082050 0.152185E+01 0.152185E+01 0.141100E+01
22.109260 0.153544E+01 0.153544E+01 0.138472E+01
22.136470 0.154720E+01 0.154720E+01 0.135792E+01
22.163680 0.155631E+01 0.155631E+01 0.133312E+01
22.190890 0.156026E+01 0.156026E+01 0.130915E+01
22.218100 0.155635E+01 0.155635E+01 0.128230E+01
22.245320 0.154387E+01 0.154387E+01 0.124972E+01
22.272530 0.152478E+01 0.152478E+01 0.121201E+01
22.299740 0.150194E+01 0.150194E+01 0.117145E+01
22.326950 0.147704E+01 0.147704E+01 0.112984E+01
22.354160 0.145067E+01 0.145067E+01 0.108859E+01
22.381370 0.142405E+01 0.142405E+01 0.104915E+01
22.408580 0.139954E+01 0.139954E+01 0.101281E+01
22.435800 0.137937E+01 0.137937E+01 0.980406E+00
22.463010 0.136489E+01 0.136489E+01 0.952444E+00
22.490220 0.135653E+01 0.135653E+01 0.929134E+00
22.517430 0.135415E+01 0.135415E+01 0.910633E+00
22.544640 0.135734E+01 0.135734E+01 0.897150E+00
22.571850 0.136574E+01 0.136574E+01 0.888852E+00
22.599060 0.137882E+01 0.137882E+01 0.885653E+00
22.626280 0.139508E+01 0.139508E+01 0.887084E+00
22.653490 0.141145E+01 0.141145E+01 0.892204E+00
22.680700 0.142371E+01 0.142371E+01 0.899473E+00
22.707910 0.142800E+01 0.142800E+01 0.906882E+00
22.735120 0.142295E+01 0.142295E+01 0.912565E+00
22.762330 0.141031E+01 0.141031E+01 0.915304E+00
22.789540 0.139296E+01 0.139296E+01 0.914445E+00
22.816750 0.137280E+01 0.137280E+01 0.909667E+00
22.843970 0.135060E+01 0.135060E+01 0.901167E+00
22.871180 0.132671E+01 0.132671E+01 0.889922E+00
22.898390 0.130168E+01 0.130168E+01 0.877399E+00
22.925600 0.127692E+01 0.127692E+01 0.864920E+00
22.952810 0.125499E+01 0.125499E+01 0.853363E+00
22.980020 0.123889E+01 0.123889E+01 0.843687E+00
23.007230 0.123052E+01 0.123052E+01 0.837398E+00
23.034450 0.122987E+01 0.122987E+01 0.835990E+00
23.061660 0.123539E+01 0.123539E+01 0.840135E+00
23.088870 0.124495E+01 0.124495E+01 0.849247E+00
23.116080 0.125670E+01 0.125670E+01 0.861604E+00
23.143290 0.126952E+01 0.126952E+01 0.875122E+00
23.170500 0.128317E+01 0.128317E+01 0.888344E+00
23.197710 0.129793E+01 0.129793E+01 0.900894E+00
23.224930 0.131411E+01 0.131411E+01 0.913301E+00
23.252140 0.133163E+01 0.133163E+01 0.926376E+00
23.279350 0.135013E+01 0.135013E+01 0.940603E+00
23.306560 0.136885E+01 0.136885E+01 0.955964E+00
23.333770 0.138654E+01 0.138654E+01 0.972341E+00
23.360980 0.140191E+01 0.140191E+01 0.989900E+00
23.388190 0.141461E+01 0.141461E+01 0.100898E+01
23.415410 0.142520E+01 0.142520E+01 0.102972E+01
23.442620 0.143453E+01 0.143453E+01 0.105187E+01
23.469830 0.144279E+01 0.144279E+01 0.107495E+01
23.497040 0.144807E+01 0.144807E+01 0.109837E+01
23.524250 0.144682E+01 0.144682E+01 0.112174E+01
23.551460 0.143678E+01 0.143678E+01 0.114513E+01
23.578670 0.141912E+01 0.141912E+01 0.116868E+01
23.605890 0.139778E+01 0.139778E+01 0.119239E+01
23.633100 0.137718E+01 0.137718E+01 0.121617E+01
23.660310 0.136046E+01 0.136046E+01 0.123970E+01
23.687520 0.134873E+01 0.134873E+01 0.126228E+01
23.714730 0.134117E+01 0.134117E+01 0.128362E+01
23.741940 0.133615E+01 0.133615E+01 0.130453E+01
23.769150 0.133257E+01 0.133257E+01 0.132666E+01
23.796370 0.133043E+01 0.133043E+01 0.135186E+01
23.823580 0.133050E+01 0.133050E+01 0.138182E+01
23.850790 0.133351E+01 0.133351E+01 0.141767E+01
23.878000 0.133931E+01 0.133931E+01 0.145943E+01
23.905210 0.134675E+01 0.134675E+01 0.150559E+01
23.932420 0.135425E+01 0.135425E+01 0.155347E+01
23.959630 0.136039E+01 0.136039E+01 0.159982E+01
23.986840 0.136395E+01 0.136395E+01 0.164053E+01
24.014060 0.136372E+01 0.136372E+01 0.167067E+01
24.041270 0.135901E+01 0.135901E+01 0.168651E+01
24.068480 0.135034E+01 0.135034E+01 0.168806E+01
24.095690 0.133905E+01 0.133905E+01 0.167869E+01
24.122900 0.132630E+01 0.132630E+01 0.166210E+01
24.150110 0.131262E+01 0.131262E+01 0.164071E+01
24.177320 0.129815E+01 0.129815E+01 0.161633E+01
24.204540 0.128301E+01 0.128301E+01 0.159087E+01
24.231750 0.126739E+01 0.126739E+01 0.156629E+01
24.258960 0.125163E+01 0.125163E+01 0.154416E+01
24.286170 0.123616E+01 0.123616E+01 0.152553E+01
24.313380 0.122141E+01 0.122141E+01 0.151096E+01
24.340590 0.120769E+01 0.120769E+01 0.150072E+01
24.367800 0.119507E+01 0.119507E+01 0.149474E+01
24.395020 0.118341E+01 0.118341E+01 0.149267E+01
24.422230 0.117240E+01 0.117240E+01 0.149372E+01
24.449440 0.116180E+01 0.116180E+01 0.149678E+01
24.476650 0.115162E+01 0.115162E+01 0.150069E+01
24.503860 0.114204E+01 0.114204E+01 0.150461E+01
24.531070 0.113339E+01 0.113339E+01 0.150824E+01
24.558280 0.112618E+01 0.112618E+01 0.151176E+01
24.585500 0.112080E+01 0.112080E+01 0.151558E+01
24.612710 0.111743E+01 0.111743E+01 0.151994E+01
24.639920 0.111603E+01 0.111603E+01 0.152462E+01
24.667130 0.111642E+01 0.111642E+01 0.152881E+01
24.694340 0.111817E+01 0.111817E+01 0.153113E+01
24.721550 0.112048E+01 0.112048E+01 0.152963E+01
24.748760 0.112224E+01 0.112224E+01 0.152212E+01
24.775980 0.112236E+01 0.112236E+01 0.150664E+01
24.803190 0.111997E+01 0.111997E+01 0.148218E+01
24.830400 0.111424E+01 0.111424E+01 0.144941E+01
24.857610 0.110459E+01 0.110459E+01 0.141101E+01
24.884820 0.109180E+01 0.109180E+01 0.137115E+01
24.912030 0.107837E+01 0.107837E+01 0.133391E+01
24.939240 0.106697E+01 0.106697E+01 0.130181E+01
24.966460 0.105909E+01 0.105909E+01 0.127535E+01
24.993670 0.105496E+01 0.105496E+01 0.125333E+01
25.020880 0.105402E+01 0.105402E+01 0.123351E+01
25.048090 0.105559E+01 0.105559E+01 0.121387E+01
25.075300 0.105914E+01 0.105914E+01 0.119351E+01
25.102510 0.106420E+01 0.106420E+01 0.117247E+01
25.129720 0.107012E+01 0.107012E+01 0.115109E+01
25.156930 0.107605E+01 0.107605E+01 0.112984E+01
25.184150 0.108145E+01 0.108145E+01 0.110956E+01
25.211360 0.108608E+01 0.108608E+01 0.109120E+01
25.238570 0.108977E+01 0.108977E+01 0.107515E+01
25.265780 0.109230E+01 0.109230E+01 0.106100E+01
25.292990 0.109364E+01 0.109364E+01 0.104796E+01
25.320200 0.109384E+01 0.109384E+01 0.103502E+01
25.347410 0.109272E+01 0.109272E+01 0.102118E+01
25.374630 0.108989E+01 0.108989E+01 0.100590E+01
25.401840 0.108531E+01 0.108531E+01 0.989844E+00
25.429050 0.107948E+01 0.107948E+01 0.974779E+00
25.456260 0.107296E+01 0.107296E+01 0.962614E+00
25.483470 0.106576E+01 0.106576E+01 0.954592E+00
25.510680 0.105734E+01 0.105734E+01 0.951247E+00
25.537890 0.104697E+01 0.104697E+01 0.952798E+00
25.565110 0.103394E+01 0.103394E+01 0.959268E+00
25.592320 0.101781E+01 0.101781E+01 0.970268E+00
25.619530 0.999348E+00 0.999348E+00 0.985180E+00
25.646740 0.980746E+00 0.980746E+00 0.100336E+01
25.673950 0.964325E+00 0.964325E+00 0.102360E+01
25.701160 0.951215E+00 0.951215E+00 0.104369E+01
25.728370 0.941358E+00 0.941358E+00 0.106086E+01
25.755590 0.934188E+00 0.934188E+00 0.107271E+01
25.782800 0.929242E+00 0.929242E+00 0.107800E+01
25.810010 0.926320E+00 0.926320E+00 0.107737E+01
25.837220 0.925326E+00 0.925326E+00 0.107309E+01
25.864430 0.926174E+00 0.926174E+00 0.106773E+01
25.891640 0.928948E+00 0.928948E+00 0.106330E+01
25.918850 0.933999E+00 0.933999E+00 0.106137E+01
25.946070 0.941723E+00 0.941723E+00 0.106304E+01
25.973280 0.952072E+00 0.952072E+00 0.106848E+01
