ASCII SCAN ANALOG DATA:			h3_9.sac
DATE:	4/26/2012	TIME:	09:10:39 PM

Number of stored SCA cycles			1
Converted SCA cycle			1

INFO SCAN:		1
Data Titel	Countrate
Data Unit	cps
Scan Titel	Energy
Scan Unit	eV
Comment	
First Mass	-10.00
Scan Width	16
Values/Mass	64
Zoom Start	-10.00
Zoom End	  6.00

INFO ADDI DATA:		1
Title	Mass
Unit	amu
Comment	

Cycle	CycleDate	CycleTime	
1	4/26/2012	09:10:39 PM:49
AddiData	1
3
ScanData	1
 -10.00	0
  -9.98	0
  -9.97	0
  -9.95	0
  -9.94	0
  -9.92	0
  -9.91	0
  -9.89	0
  -9.88	0
  -9.86	0
  -9.84	0
  -9.83	0
  -9.81	0
  -9.80	0
  -9.78	0
  -9.77	0
  -9.75	0
  -9.73	0
  -9.72	0
  -9.70	0
  -9.69	0
  -9.67	0
  -9.66	0
  -9.64	0
  -9.63	0
  -9.61	0
  -9.59	0
  -9.58	0
  -9.56	0
  -9.55	0
  -9.53	0
  -9.52	0
  -9.50	0
  -9.48	0
  -9.47	0
  -9.45	0
  -9.44	0
  -9.42	0
  -9.41	0
  -9.39	0
  -9.38	0
  -9.36	0
  -9.34	0
  -9.33	0
  -9.31	0
  -9.30	0
  -9.28	0
  -9.27	0
  -9.25	0
  -9.23	0
  -9.22	0
  -9.20	0
  -9.19	0
  -9.17	0
  -9.16	0
  -9.14	0
  -9.13	0
  -9.11	0
  -9.09	0
  -9.08	0
  -9.06	0
  -9.05	0
  -9.03	0
  -9.02	0
  -9.00	0
  -8.98	0
  -8.97	0
  -8.95	0
  -8.94	0
  -8.92	0
  -8.91	0
  -8.89	0
  -8.88	0
  -8.86	0
  -8.84	0
  -8.83	0
  -8.81	0
  -8.80	0
  -8.78	0
  -8.77	0
  -8.75	0
  -8.73	0
  -8.72	0
  -8.70	0
  -8.69	0
  -8.67	0
  -8.66	0
  -8.64	0
  -8.63	0
  -8.61	0
  -8.59	0
  -8.58	0
  -8.56	0
  -8.55	0
  -8.53	0
  -8.52	0
  -8.50	0
  -8.48	0
  -8.47	0
  -8.45	0
  -8.44	0
  -8.42	0
  -8.41	0
  -8.39	0
  -8.38	0
  -8.36	0
  -8.34	0
  -8.33	0
  -8.31	0
  -8.30	0
  -8.28	0
  -8.27	0
  -8.25	0
  -8.23	0
  -8.22	0
  -8.20	0
  -8.19	0
  -8.17	0
  -8.16	0
  -8.14	0
  -8.13	0
  -8.11	0
  -8.09	0
  -8.08	0
  -8.06	0
  -8.05	0
  -8.03	0
  -8.02	0
  -8.00	0
  -7.98	0
  -7.97	0
  -7.95	0
  -7.94	0
  -7.92	0
  -7.91	0
  -7.89	0
  -7.88	0
  -7.86	0
  -7.84	0
  -7.83	0
  -7.81	0
  -7.80	0
  -7.78	0
  -7.77	0
  -7.75	0
  -7.73	0
  -7.72	0
  -7.70	0
  -7.69	0
  -7.67	0
  -7.66	0
  -7.64	0
  -7.63	0
  -7.61	0
  -7.59	0
  -7.58	0
  -7.56	0
  -7.55	0
  -7.53	0
  -7.52	0
  -7.50	0
  -7.48	0
  -7.47	0
  -7.45	0
  -7.44	0
  -7.42	0
  -7.41	0
  -7.39	0
  -7.38	0
  -7.36	0
  -7.34	0
  -7.33	0
  -7.31	0
  -7.30	0
  -7.28	0
  -7.27	0
  -7.25	0
  -7.23	0
  -7.22	0
  -7.20	0
  -7.19	0
  -7.17	0
  -7.16	0
  -7.14	0
  -7.13	0
  -7.11	0
  -7.09	0
  -7.08	0
  -7.06	0
  -7.05	0
  -7.03	0
  -7.02	0
  -7.00	0
  -6.98	0
  -6.97	0
  -6.95	0
  -6.94	0
  -6.92	0
  -6.91	0
  -6.89	0
  -6.88	0
  -6.86	0
  -6.84	0
  -6.83	0
  -6.81	0
  -6.80	0
  -6.78	0
  -6.77	0
  -6.75	0
  -6.73	0
  -6.72	0
  -6.70	0
  -6.69	0
  -6.67	0
  -6.66	31.9898
  -6.64	0
  -6.63	0
  -6.61	0
  -6.59	0
  -6.58	0
  -6.56	0
  -6.55	0
  -6.53	0
  -6.52	0
  -6.50	0
  -6.48	0
  -6.47	0
  -6.45	0
  -6.44	0
  -6.42	0
  -6.41	0
  -6.39	0
  -6.38	0
  -6.36	0
  -6.34	0
  -6.33	0
  -6.31	0
  -6.30	0
  -6.28	0
  -6.27	0
  -6.25	0
  -6.23	0
  -6.22	0
  -6.20	0
  -6.19	0
  -6.17	0
  -6.16	0
  -6.14	0
  -6.13	0
  -6.11	0
  -6.09	0
  -6.08	0
  -6.06	0
  -6.05	0
  -6.03	0
  -6.02	0
  -6.00	0
  -5.98	0
  -5.97	0
  -5.95	0
  -5.94	0
  -5.92	0
  -5.91	0
  -5.89	0
  -5.88	0
  -5.86	0
  -5.84	0
  -5.83	0
  -5.81	0
  -5.80	0
  -5.78	0
  -5.77	0
  -5.75	0
  -5.73	0
  -5.72	0
  -5.70	0
  -5.69	0
  -5.67	0
  -5.66	0
  -5.64	0
  -5.63	0
  -5.61	0
  -5.59	0
  -5.58	0
  -5.56	0
  -5.55	0
  -5.53	0
  -5.52	0
  -5.50	0
  -5.48	0
  -5.47	0
  -5.45	0
  -5.44	0
  -5.42	0
  -5.41	0
  -5.39	0
  -5.38	0
  -5.36	0
  -5.34	0
  -5.33	0
  -5.31	0
  -5.30	0
  -5.28	0
  -5.27	0
  -5.25	0
  -5.23	0
  -5.22	0
  -5.20	0
  -5.19	0
  -5.17	0
  -5.16	0
  -5.14	0
  -5.13	0
  -5.11	0
  -5.09	0
  -5.08	0
  -5.06	0
  -5.05	0
  -5.03	0
  -5.02	0
  -5.00	0
  -4.98	0
  -4.97	0
  -4.95	0
  -4.94	0
  -4.92	0
  -4.91	0
  -4.89	0
  -4.88	0
  -4.86	0
  -4.84	0
  -4.83	0
  -4.81	0
  -4.80	0
  -4.78	0
  -4.77	0
  -4.75	0
  -4.73	0
  -4.72	0
  -4.70	0
  -4.69	0
  -4.67	0
  -4.66	0
  -4.64	0
  -4.63	0
  -4.61	0
  -4.59	0
  -4.58	0
  -4.56	0
  -4.55	0
  -4.53	0
  -4.52	0
  -4.50	0
  -4.48	0
  -4.47	0
  -4.45	0
  -4.44	0
  -4.42	0
  -4.41	0
  -4.39	0
  -4.38	0
  -4.36	0
  -4.34	0
  -4.33	0
  -4.31	0
  -4.30	0
  -4.28	0
  -4.27	0
  -4.25	0
  -4.23	0
  -4.22	0
  -4.20	0
  -4.19	0
  -4.17	0
  -4.16	0
  -4.14	0
  -4.13	31.9898
  -4.11	0
  -4.09	0
  -4.08	0
  -4.06	0
  -4.05	0
  -4.03	0
  -4.02	0
  -4.00	0
  -3.98	0
  -3.97	0
  -3.95	0
  -3.94	0
  -3.92	0
  -3.91	0
  -3.89	0
  -3.88	0
  -3.86	0
  -3.84	0
  -3.83	0
  -3.81	0
  -3.80	0
  -3.78	0
  -3.77	0
  -3.75	0
  -3.73	0
  -3.72	0
  -3.70	0
  -3.69	0
  -3.67	0
  -3.66	0
  -3.64	0
  -3.63	0
  -3.61	0
  -3.59	0
  -3.58	0
  -3.56	0
  -3.55	0
  -3.53	0
  -3.52	0
  -3.50	0
  -3.48	0
  -3.47	0
  -3.45	0
  -3.44	0
  -3.42	0
  -3.41	0
  -3.39	0
  -3.38	0
  -3.36	0
  -3.34	0
  -3.33	0
  -3.31	0
  -3.30	0
  -3.28	0
  -3.27	0
  -3.25	0
  -3.23	0
  -3.22	0
  -3.20	0
  -3.19	0
  -3.17	0
  -3.16	0
  -3.14	0
  -3.13	0
  -3.11	0
  -3.09	0
  -3.08	0
  -3.06	0
  -3.05	0
  -3.03	0
  -3.02	0
  -3.00	0
  -2.98	0
  -2.97	0
  -2.95	0
  -2.94	0
  -2.92	31.9898
  -2.91	0
  -2.89	0
  -2.88	0
  -2.86	0
  -2.84	0
  -2.83	0
  -2.81	0
  -2.80	0
  -2.78	0
  -2.77	0
  -2.75	0
  -2.73	0
  -2.72	0
  -2.70	0
  -2.69	0
  -2.67	0
  -2.66	0
  -2.64	0
  -2.63	0
  -2.61	0
  -2.59	0
  -2.58	0
  -2.56	0
  -2.55	0
  -2.53	0
  -2.52	0
  -2.50	0
  -2.48	0
  -2.47	0
  -2.45	0
  -2.44	0
  -2.42	0
  -2.41	0
  -2.39	0
  -2.38	0
  -2.36	0
  -2.34	0
  -2.33	0
  -2.31	0
  -2.30	0
  -2.28	0
  -2.27	0
  -2.25	0
  -2.23	0
  -2.22	31.9898
  -2.20	0
  -2.19	0
  -2.17	0
  -2.16	0
  -2.14	0
  -2.13	0
  -2.11	0
  -2.09	0
  -2.08	0
  -2.06	0
  -2.05	0
  -2.03	0
  -2.02	0
  -2.00	0
  -1.98	0
  -1.97	0
  -1.95	0
  -1.94	0
  -1.92	0
  -1.91	0
  -1.89	0
  -1.88	0
  -1.86	0
  -1.84	0
  -1.83	0
  -1.81	0
  -1.80	0
  -1.78	63.9795
  -1.77	0
  -1.75	0
  -1.73	0
  -1.72	0
  -1.70	0
  -1.69	0
  -1.67	0
  -1.66	0
  -1.64	0
  -1.63	0
  -1.61	0
  -1.59	0
  -1.58	0
  -1.56	0
  -1.55	0
  -1.53	0
  -1.52	0
  -1.50	0
  -1.48	0
  -1.47	0
  -1.45	0
  -1.44	0
  -1.42	0
  -1.41	0
  -1.39	0
  -1.38	0
  -1.36	0
  -1.34	0
  -1.33	0
  -1.31	0
  -1.30	0
  -1.28	0
  -1.27	0
  -1.25	0
  -1.23	0
  -1.22	0
  -1.20	0
  -1.19	0
  -1.17	0
  -1.16	0
  -1.14	0
  -1.13	0
  -1.11	0
  -1.09	0
  -1.08	31.9898
  -1.06	0
  -1.05	0
  -1.03	0
  -1.02	0
  -1.00	0
  -0.98	0
  -0.97	0
  -0.95	0
  -0.94	0
  -0.92	0
  -0.91	0
  -0.89	0
  -0.88	31.9898
  -0.86	0
  -0.84	0
  -0.83	0
  -0.81	0
  -0.80	0
  -0.78	0
  -0.77	0
  -0.75	0
  -0.73	0
  -0.72	0
  -0.70	0
  -0.69	0
  -0.67	0
  -0.66	0
  -0.64	0
  -0.63	0
  -0.61	0
  -0.59	0
  -0.58	0
  -0.56	0
  -0.55	31.9898
  -0.53	0
  -0.52	31.9898
  -0.50	31.9898
  -0.48	0
  -0.47	0
  -0.45	0
  -0.44	0
  -0.42	0
  -0.41	0
  -0.39	0
  -0.38	0
  -0.36	0
  -0.34	0
  -0.33	0
  -0.31	0
  -0.30	0
  -0.28	0
  -0.27	0
  -0.25	0
  -0.23	31.9898
  -0.22	31.9898
  -0.20	31.9898
  -0.19	0
  -0.17	0
  -0.16	0
  -0.14	0
  -0.13	0
  -0.11	0
  -0.09	0
  -0.08	0
  -0.06	0
  -0.05	31.9898
  -0.03	0
  -0.02	31.9898
   0.00	0
   0.02	0
   0.03	0
   0.05	0
   0.06	0
   0.08	0
   0.09	0
   0.11	95.9693
   0.13	0
   0.14	0
   0.16	0
   0.17	0
   0.19	0
   0.20	0
   0.22	0
   0.23	31.9898
   0.25	0
   0.27	31.9898
   0.28	63.9795
   0.30	0
   0.31	0
   0.33	63.9795
   0.34	0
   0.36	0
   0.38	0
   0.39	0
   0.41	0
   0.42	0
   0.44	31.9898
   0.45	0
   0.47	0
   0.48	0
   0.50	0
   0.52	31.9898
   0.53	31.9898
   0.55	0
   0.56	0
   0.58	31.9898
   0.59	31.9898
   0.61	31.9898
   0.63	31.9898
   0.64	0
   0.66	0
   0.67	63.9795
   0.69	0
   0.70	95.9693
   0.72	0
   0.73	31.9898
   0.75	31.9898
   0.77	0
   0.78	31.9898
   0.80	63.9795
   0.81	63.9795
   0.83	31.9898
   0.84	0
   0.86	31.9898
   0.88	0
   0.89	31.9898
   0.91	31.9898
   0.92	63.9795
   0.94	0
   0.95	95.9693
   0.97	63.9795
   0.98	95.9693
   1.00	31.9898
   1.02	31.9898
   1.03	31.9898
   1.05	0
   1.06	31.9898
   1.08	31.9898
   1.09	31.9898
   1.11	31.9898
   1.13	63.9795
   1.14	63.9795
   1.16	127.959
   1.17	63.9795
   1.19	63.9795
   1.20	63.9795
   1.22	159.949
   1.23	95.9693
   1.25	95.9693
   1.27	127.959
   1.28	159.949
   1.30	95.9693
   1.31	287.908
   1.33	63.9795
   1.34	255.918
   1.36	63.9795
   1.38	63.9795
   1.39	191.939
   1.41	191.939
   1.42	223.928
   1.44	223.928
   1.45	191.939
   1.47	191.939
   1.48	319.898
   1.50	415.867
   1.52	319.898
   1.53	383.877
   1.55	511.836
   1.56	319.898
   1.58	383.877
   1.59	671.785
   1.61	639.795
   1.63	703.775
   1.64	223.928
   1.66	831.734
   1.67	831.734
   1.69	799.744
   1.70	927.703
   1.72	1279.59
   1.73	1279.59
   1.75	1087.65
   1.77	1439.54
   1.78	2271.27
   1.80	1855.41
   1.81	2175.3
   1.83	2495.2
   1.84	2239.28
   1.86	2815.1
   1.88	3774.79
   1.89	4574.54
   1.91	5694.18
   1.92	6813.82
   1.94	7453.62
   1.95	8989.13
   1.97	10940.5
   1.98	15003.2
   2.00	16890.6
   2.02	23128.6
   2.03	26967.4
   2.05	37044.2
   2.06	45009.6
   2.08	55086.4
   2.09	74216.3
   2.11	88323.8
   2.13	115067
   2.14	137428
   2.16	178119
   2.17	212892
   2.19	256526
   2.20	302335
   2.22	348625
   2.23	404767
   2.25	458605
   2.27	530390
   2.28	587652
   2.30	647921
   2.31	698273
   2.33	757582
   2.34	825752
   2.36	879559
   2.38	932598
   2.39	960941
   2.41	1.01657E+006
   2.42	1.06228E+006
   2.44	1.10048E+006
   2.45	1.14463E+006
   2.47	1.15589E+006
   2.48	1.19747E+006
   2.50	1.21584E+006
   2.52	1.23058E+006
   2.53	1.24731E+006
   2.55	1.25326E+006
   2.56	1.25774E+006
   2.58	1.24594E+006
   2.59	1.24162E+006
   2.61	1.19735E+006
   2.63	1.19578E+006
   2.64	1.16456E+006
   2.66	1.12095E+006
   2.67	1.08557E+006
   2.69	1.0588E+006
   2.70	1.01411E+006
   2.72	966603
   2.73	914236
   2.75	876200
   2.77	831126
   2.78	782246
   2.80	755566
   2.81	701856
   2.83	671177
   2.84	632950
   2.86	594818
   2.88	548337
   2.89	525592
   2.91	497921
   2.92	479303
   2.94	462444
   2.95	444690
   2.97	422105
   2.98	415643
   3.00	401280
   3.02	381414
   3.03	376456
   3.05	366859
   3.06	357390
   3.08	353903
   3.09	357678
   3.11	348049
   3.13	355086
   3.14	343186
   3.16	349264
   3.17	344434
   3.19	348273
   3.20	346225
   3.22	341683
   3.23	342515
   3.25	334229
   3.27	340083
   3.28	332406
   3.30	324952
   3.31	324504
   3.33	318138
   3.34	300832
   3.36	298401
   3.38	287236
   3.39	273033
   3.41	268362
   3.42	252687
   3.44	238996
   3.45	218650
   3.47	199264
   3.48	190659
   3.50	170665
   3.52	157550
   3.53	143474
   3.55	130262
   3.56	117594
   3.58	104926
   3.59	86788.3
   3.61	74440.2
   3.63	65419.1
   3.64	57101.7
   3.66	45617.4
   3.67	39603.3
   3.69	30262.3
   3.70	24760.1
   3.72	19833.7
   3.73	14491.4
   3.75	11836.2
   3.77	8925.15
   3.78	5758.16
   3.80	5118.36
   3.81	3518.88
   3.83	2847.09
   3.84	1311.58
   3.86	991.683
   3.88	447.857
   3.89	447.857
   3.91	351.888
   3.92	159.949
   3.94	127.959
   3.95	95.9693
   3.97	0
   3.98	0
   4.00	63.9795
   4.02	0
   4.03	31.9898
   4.05	0
   4.06	0
   4.08	0
   4.09	0
   4.11	0
   4.13	0
   4.14	0
   4.16	0
   4.17	0
   4.19	0
   4.20	0
   4.22	0
   4.23	0
   4.25	0
   4.27	0
   4.28	0
   4.30	0
   4.31	0
   4.33	0
   4.34	0
   4.36	0
   4.38	0
   4.39	0
   4.41	0
   4.42	0
   4.44	0
   4.45	0
   4.47	0
   4.48	0
   4.50	0
   4.52	0
   4.53	0
   4.55	0
   4.56	0
   4.58	0
   4.59	0
   4.61	0
   4.63	0
   4.64	0
   4.66	0
   4.67	0
   4.69	0
   4.70	0
   4.72	0
   4.73	0
   4.75	0
   4.77	0
   4.78	0
   4.80	0
   4.81	0
   4.83	0
   4.84	0
   4.86	0
   4.88	0
   4.89	0
   4.91	0
   4.92	0
   4.94	0
   4.95	0
   4.97	0
   4.98	0
   5.00	0
   5.02	0
   5.03	0
   5.05	0
   5.06	0
   5.08	0
   5.09	0
   5.11	0
   5.13	0
   5.14	0
   5.16	0
   5.17	0
   5.19	0
   5.20	0
   5.22	0
   5.23	0
   5.25	0
   5.27	0
   5.28	0
   5.30	0
   5.31	0
   5.33	0
   5.34	0
   5.36	0
   5.38	0
   5.39	0
   5.41	0
   5.42	0
   5.44	0
   5.45	0
   5.47	0
   5.48	0
   5.50	0
   5.52	0
   5.53	0
   5.55	0
   5.56	0
   5.58	0
   5.59	0
   5.61	0
   5.63	0
   5.64	0
   5.66	0
   5.67	0
   5.69	0
   5.70	0
   5.72	0
   5.73	0
   5.75	0
   5.77	0
   5.78	0
   5.80	0
   5.81	0
   5.83	0
   5.84	0
   5.86	0
   5.88	0
   5.89	0
   5.91	0
   5.92	0
   5.94	0
   5.95	0
   5.97	0
   5.98	0
?	?
